File: raw_csv_data/Nylon - 11.csv
Created as New Dataset,81. Nylon Allied Signal Fibers
cm-1,%T
4000.00,99.02
3988.00,99.03
3976.00,99.04
3964.00,99.10
3952.00,99.09
3940.00,99.07
3928.00,99.12
3916.00,99.09
3904.00,99.07
3892.00,99.05
3880.00,99.08
3868.00,99.06
3856.00,99.18
3844.00,99.12
3832.00,99.10
3820.00,99.08
3808.00,99.04
3796.00,99.01
3784.00,99.00
3772.00,98.99
3760.00,98.97
3748.00,99.11
3736.00,99.09
3724.00,99.02
3712.00,99.04
3700.00,98.92
3688.00,98.92
3676.00,98.93
3664.00,98.82
3652.00,98.85
3640.00,98.74
3628.00,98.92
3616.00,98.85
3604.00,98.64
3592.00,98.62
3580.00,98.53
3568.00,98.57
3556.00,98.35
3544.00,98.31
3532.00,98.18
3520.00,98.08
3508.00,98.05
3496.00,97.90
3484.00,97.85
3472.00,97.84
3460.00,97.79
3448.00,97.72
3436.00,97.60
3424.00,97.66
3412.00,97.58
3400.00,97.42
3388.00,97.32
3376.00,97.13
3364.00,96.77
3352.00,96.14
3340.00,95.29
3328.00,94.01
3316.00,92.12
3304.00,90.10
3292.00,89.63
3280.00,90.59
3268.00,91.62
3256.00,92.90
3244.00,94.14
3232.00,95.02
3220.00,95.60
3208.00,95.91
3196.00,96.17
3184.00,96.53
3172.00,96.89
3160.00,97.23
3148.00,97.39
3136.00,97.36
3124.00,97.35
3112.00,97.09
3100.00,96.62
3088.00,96.30
3076.00,96.20
3064.00,96.54
3052.00,96.98
3040.00,97.45
3028.00,97.74
3016.00,97.89
3004.00,97.91
2992.00,97.82
2980.00,97.31
2968.00,96.19
2956.00,94.23
2944.00,91.46
2932.00,90.30
2920.00,91.43
2908.00,93.21
2896.00,94.22
2884.00,94.88
2872.00,93.27
2860.00,92.32
2848.00,94.36
2836.00,96.78
2824.00,97.28
2812.00,97.57
2800.00,97.77
2788.00,97.88
2776.00,98.02
2764.00,98.06
2752.00,98.12
2740.00,98.17
2728.00,98.20
2716.00,98.25
2704.00,98.32
2692.00,98.32
2680.00,98.39
2668.00,98.38
2656.00,98.32
2644.00,98.27
2632.00,98.27
2620.00,98.19
2608.00,98.21
2596.00,98.21
2584.00,98.20
2572.00,98.18
2560.00,98.15
2548.00,98.19
2536.00,98.07
2524.00,98.15
2512.00,98.23
2500.00,98.25
2488.00,98.18
2476.00,98.14
2464.00,98.18
2452.00,98.12
2440.00,98.20
2428.00,98.23
2416.00,98.21
2404.00,98.26
2392.00,98.37
2380.00,98.47
2368.00,98.61
2356.00,98.63
2344.00,98.82
2332.00,98.59
2320.00,98.39
2308.00,98.34
2296.00,98.23
2284.00,97.94
2272.00,97.89
2260.00,97.70
2248.00,97.72
2236.00,97.70
2224.00,97.37
2212.00,97.43
2200.00,97.45
2188.00,97.16
2176.00,97.18
2164.00,96.95
2152.00,97.26
2140.00,97.50
2128.00,97.72
2116.00,97.71
2104.00,97.76
2092.00,97.78
2080.00,97.71
2068.00,97.69
2056.00,97.63
2044.00,97.28
2032.00,97.15
2020.00,97.34
2008.00,97.30
1996.00,97.46
1984.00,97.23
1972.00,97.25
1960.00,97.64
1948.00,97.75
1936.00,97.87
1924.00,97.94
1912.00,97.99
1900.00,98.09
1888.00,98.09
1876.00,98.20
1864.00,98.20
1852.00,98.22
1840.00,98.26
1828.00,98.27
1816.00,98.38
1804.00,98.37
1792.00,98.43
1780.00,98.31
1768.00,98.37
1756.00,98.26
1744.00,98.19
1732.00,98.14
1720.00,98.04
1708.00,97.93
1696.00,97.85
1684.00,96.61
1672.00,93.56
1660.00,88.85
1648.00,83.31
1636.00,76.81
1624.00,79.52
1612.00,85.83
1600.00,90.96
1588.00,92.44
1576.00,90.64
1564.00,86.31
1552.00,82.50
1540.00,79.85
1528.00,81.77
1516.00,86.16
1504.00,90.04
1492.00,92.22
1480.00,90.70
1468.00,89.47
1456.00,89.13
1444.00,89.70
1432.00,89.39
1420.00,89.49
1408.00,91.60
1396.00,93.17
1384.00,91.95
1372.00,90.26
1360.00,90.94
1348.00,92.00
1336.00,92.47
1324.00,92.91
1312.00,92.47
1300.00,91.99
1288.00,91.62
1276.00,90.81
1264.00,89.16
1252.00,89.87
1240.00,90.41
1228.00,92.30
1216.00,92.36
1204.00,91.11
1192.00,92.26
1180.00,92.98
1168.00,90.49
1156.00,93.65
1144.00,95.06
1132.00,95.15
1120.00,93.44
1108.00,93.84
1096.00,94.89
1084.00,94.78
1072.00,94.56
1060.00,95.23
1048.00,95.88
1036.00,95.92
1024.00,95.90
1012.00,96.18
1000.00,96.13
988.00,95.77
976.00,95.40
964.00,95.26
952.00,95.47
940.00,96.14
928.00,95.79
916.00,96.32
904.00,96.59
892.00,96.72
880.00,96.80
868.00,96.90
856.00,96.83
844.00,96.53
832.00,95.98
820.00,96.30
808.00,95.97
796.00,95.39
784.00,94.87
772.00,94.12
760.00,93.58
748.00,92.55
736.00,90.68
724.00,88.93
712.00,88.52
700.00,87.57
688.00,86.18
676.00,86.14
664.00,87.17
652.00,88.27
640.00,88.80
628.00,89.46
616.00,88.94
604.00,88.49
592.00,87.84
580.00,86.59
568.00,84.87
556.00,88.07
550.00,87.03