File: raw_csv_data/Nylon - 5.csv
Created as New Dataset,78 Nylon Allied Signal Fibers
cm-1,%T
4000.00,99.25
3988.00,99.29
3976.00,99.27
3964.00,99.28
3952.00,99.24
3940.00,99.27
3928.00,99.26
3916.00,99.23
3904.00,99.22
3892.00,99.23
3880.00,99.21
3868.00,99.17
3856.00,99.16
3844.00,99.19
3832.00,99.08
3820.00,99.24
3808.00,99.10
3796.00,99.09
3784.00,99.07
3772.00,99.12
3760.00,99.12
3748.00,99.03
3736.00,99.10
3724.00,99.06
3712.00,99.07
3700.00,99.01
3688.00,98.89
3676.00,98.89
3664.00,98.94
3652.00,98.92
3640.00,98.94
3628.00,98.90
3616.00,98.81
3604.00,98.76
3592.00,98.72
3580.00,98.62
3568.00,98.58
3556.00,98.47
3544.00,98.41
3532.00,98.28
3520.00,98.14
3508.00,98.11
3496.00,97.99
3484.00,97.97
3472.00,97.89
3460.00,97.78
3448.00,97.69
3436.00,97.67
3424.00,97.58
3412.00,97.44
3400.00,97.28
3388.00,97.14
3376.00,97.00
3364.00,96.72
3352.00,96.31
3340.00,95.63
3328.00,94.58
3316.00,93.04
3304.00,90.92
3292.00,90.40
3280.00,92.09
3268.00,93.27
3256.00,94.37
3244.00,95.17
3232.00,95.85
3220.00,96.15
3208.00,96.40
3196.00,96.60
3184.00,96.77
3172.00,97.09
3160.00,97.35
3148.00,97.52
3136.00,97.61
3124.00,97.62
3112.00,97.42
3100.00,97.22
3088.00,97.00
3076.00,96.95
3064.00,96.96
3052.00,97.23
3040.00,97.65
3028.00,97.87
3016.00,98.00
3004.00,98.08
2992.00,98.00
2980.00,97.60
2968.00,96.72
2956.00,95.35
2944.00,92.79
2932.00,92.07
2920.00,93.08
2908.00,94.38
2896.00,95.01
2884.00,95.52
2872.00,94.19
2860.00,93.96
2848.00,95.26
2836.00,97.08
2824.00,97.44
2812.00,97.65
2800.00,97.84
2788.00,97.89
2776.00,98.01
2764.00,98.08
2752.00,98.07
2740.00,98.09
2728.00,98.17
2716.00,98.22
2704.00,98.25
2692.00,98.27
2680.00,98.30
2668.00,98.32
2656.00,98.29
2644.00,98.22
2632.00,98.20
2620.00,98.17
2608.00,98.14
2596.00,98.16
2584.00,98.12
2572.00,98.08
2560.00,98.07
2548.00,98.12
2536.00,98.06
2524.00,98.17
2512.00,98.15
2500.00,98.15
2488.00,98.17
2476.00,98.16
2464.00,98.11
2452.00,98.08
2440.00,98.09
2428.00,98.14
2416.00,98.19
2404.00,98.17
2392.00,98.26
2380.00,98.32
2368.00,98.42
2356.00,98.46
2344.00,98.48
2332.00,98.50
2320.00,98.09
2308.00,98.17
2296.00,98.13
2284.00,97.97
2272.00,97.93
2260.00,97.88
2248.00,97.82
2236.00,97.67
2224.00,97.78
2212.00,97.53
2200.00,97.50
2188.00,97.52
2176.00,97.39
2164.00,97.36
2152.00,97.43
2140.00,97.72
2128.00,97.77
2116.00,97.82
2104.00,97.79
2092.00,97.75
2080.00,97.74
2068.00,97.64
2056.00,97.80
2044.00,97.40
2032.00,97.34
2020.00,97.50
2008.00,97.45
1996.00,97.67
1984.00,97.51
1972.00,97.63
1960.00,97.72
1948.00,97.78
1936.00,97.90
1924.00,97.89
1912.00,97.95
1900.00,98.02
1888.00,97.97
1876.00,97.99
1864.00,98.07
1852.00,98.12
1840.00,98.16
1828.00,98.15
1816.00,98.19
1804.00,98.16
1792.00,98.20
1780.00,98.17
1768.00,98.15
1756.00,98.04
1744.00,97.89
1732.00,97.74
1720.00,97.70
1708.00,97.66
1696.00,97.45
1684.00,96.51
1672.00,94.53
1660.00,91.10
1648.00,87.41
1636.00,82.94
1624.00,85.66
1612.00,90.02
1600.00,93.32
1588.00,94.25
1576.00,93.18
1564.00,91.00
1552.00,88.09
1540.00,84.38
1528.00,85.67
1516.00,88.82
1504.00,91.58
1492.00,93.36
1480.00,91.81
1468.00,91.50
1456.00,91.44
1444.00,91.93
1432.00,91.91
1420.00,91.33
1408.00,92.81
1396.00,94.09
1384.00,93.21
1372.00,91.72
1360.00,92.50
1348.00,93.25
1336.00,93.60
1324.00,93.97
1312.00,93.77
1300.00,93.47
1288.00,93.11
1276.00,92.64
1264.00,90.39
1252.00,91.71
1240.00,92.21
1228.00,93.48
1216.00,93.45
1204.00,92.39
1192.00,93.02
1180.00,94.05
1168.00,92.66
1156.00,94.09
1144.00,95.01
1132.00,95.14
1120.00,94.08
1108.00,94.11
1096.00,94.72
1084.00,94.79
1072.00,94.46
1060.00,94.43
1048.00,94.83
1036.00,94.65
1024.00,94.53
1012.00,94.94
1000.00,95.09
988.00,95.06
976.00,95.10
964.00,95.08
952.00,95.13
940.00,95.82
928.00,95.24
916.00,96.12
904.00,96.27
892.00,96.29
880.00,96.46
868.00,96.59
856.00,96.58
844.00,96.62
832.00,96.03
820.00,96.38
808.00,96.26
796.00,96.00
784.00,95.65
772.00,95.34
760.00,94.98
748.00,94.45
736.00,93.30
724.00,92.05
712.00,91.55
700.00,90.55
688.00,89.04
676.00,88.99
664.00,89.95
652.00,90.98
640.00,91.51
628.00,91.68
616.00,91.50
604.00,91.84
592.00,91.34
580.00,89.76
568.00,89.44
556.00,88.80
550.00,90.62