File: raw_csv_data/Nylon - 10.5.csv
Created as New Dataset,97. Du Pont (Bright Yellow)
cm-1,%T
4000.00,97.10
3988.00,97.06
3976.00,97.02
3964.00,97.06
3952.00,97.06
3940.00,97.03
3928.00,96.98
3916.00,96.97
3904.00,97.03
3892.00,96.97
3880.00,96.94
3868.00,96.97
3856.00,97.05
3844.00,96.96
3832.00,96.97
3820.00,96.91
3808.00,96.95
3796.00,96.89
3784.00,96.82
3772.00,96.84
3760.00,96.72
3748.00,96.76
3736.00,96.74
3724.00,96.61
3712.00,96.65
3700.00,96.64
3688.00,96.61
3676.00,96.49
3664.00,96.46
3652.00,96.45
3640.00,96.35
3628.00,96.37
3616.00,96.32
3604.00,96.26
3592.00,96.32
3580.00,96.14
3568.00,96.07
3556.00,95.97
3544.00,95.85
3532.00,95.83
3520.00,95.63
3508.00,95.58
3496.00,95.44
3484.00,95.40
3472.00,95.34
3460.00,95.29
3448.00,95.29
3436.00,95.27
3424.00,95.29
3412.00,95.11
3400.00,95.02
3388.00,94.98
3376.00,94.85
3364.00,94.51
3352.00,94.12
3340.00,93.20
3328.00,91.57
3316.00,88.57
3304.00,85.00
3292.00,84.54
3280.00,86.61
3268.00,88.26
3256.00,89.53
3244.00,90.66
3232.00,91.47
3220.00,92.01
3208.00,92.33
3196.00,92.54
3184.00,92.82
3172.00,93.18
3160.00,93.56
3148.00,93.80
3136.00,93.97
3124.00,93.96
3112.00,93.76
3100.00,93.45
3088.00,93.20
3076.00,93.03
3064.00,92.97
3052.00,93.31
3040.00,93.92
3028.00,94.26
3016.00,94.51
3004.00,94.67
2992.00,94.78
2980.00,94.53
2968.00,93.58
2956.00,91.79
2944.00,87.91
2932.00,85.35
2920.00,87.04
2908.00,88.75
2896.00,90.45
2884.00,90.84
2872.00,89.22
2860.00,88.00
2848.00,90.05
2836.00,92.09
2824.00,92.66
2812.00,93.04
2800.00,93.31
2788.00,93.51
2776.00,93.61
2764.00,93.73
2752.00,93.78
2740.00,93.83
2728.00,93.90
2716.00,94.04
2704.00,94.10
2692.00,94.13
2680.00,94.12
2668.00,94.17
2656.00,94.11
2644.00,94.00
2632.00,93.89
2620.00,93.85
2608.00,93.72
2596.00,93.62
2584.00,93.55
2572.00,93.58
2560.00,93.56
2548.00,93.61
2536.00,93.61
2524.00,93.55
2512.00,93.62
2500.00,93.61
2488.00,93.65
2476.00,93.64
2464.00,93.63
2452.00,93.66
2440.00,93.71
2428.00,93.77
2416.00,93.83
2404.00,93.84
2392.00,93.91
2380.00,94.16
2368.00,94.42
2356.00,94.45
2344.00,94.56
2332.00,94.38
2320.00,94.21
2308.00,94.00
2296.00,93.67
2284.00,93.26
2272.00,93.15
2260.00,92.94
2248.00,92.88
2236.00,92.72
2224.00,92.57
2212.00,92.38
2200.00,91.95
2188.00,91.92
2176.00,91.78
2164.00,91.29
2152.00,92.18
2140.00,92.53
2128.00,92.96
2116.00,93.10
2104.00,93.19
2092.00,93.16
2080.00,93.02
2068.00,92.89
2056.00,92.73
2044.00,92.30
2032.00,92.04
2020.00,92.10
2008.00,92.36
1996.00,92.56
1984.00,92.35
1972.00,92.44
1960.00,92.80
1948.00,93.24
1936.00,93.55
1924.00,93.75
1912.00,93.98
1900.00,94.10
1888.00,94.32
1876.00,94.37
1864.00,94.55
1852.00,94.69
1840.00,94.82
1828.00,94.96
1816.00,95.12
1804.00,95.22
1792.00,95.37
1780.00,95.50
1768.00,95.58
1756.00,95.53
1744.00,95.24
1732.00,95.26
1720.00,95.53
1708.00,95.74
1696.00,96.12
1684.00,95.54
1672.00,93.07
1660.00,87.10
1648.00,78.75
1636.00,68.96
1624.00,72.50
1612.00,80.81
1600.00,86.09
1588.00,88.52
1576.00,87.76
1564.00,83.93
1552.00,78.72
1540.00,70.24
1528.00,65.21
1516.00,73.11
1504.00,79.86
1492.00,83.88
1480.00,83.27
1468.00,81.32
1456.00,82.39
1444.00,83.77
1432.00,84.04
1420.00,83.13
1408.00,85.51
1396.00,86.75
1384.00,85.44
1372.00,82.56
1360.00,83.78
1348.00,85.65
1336.00,86.72
1324.00,87.09
1312.00,87.19
1300.00,86.61
1288.00,85.80
1276.00,79.56
1264.00,79.67
1252.00,82.02
1240.00,83.26
1228.00,84.29
1216.00,85.53
1204.00,83.20
1192.00,80.63
1180.00,82.48
1168.00,85.57
1156.00,86.60
1144.00,85.63
1132.00,87.13
1120.00,88.57
1108.00,89.07
1096.00,89.26
1084.00,89.55
1072.00,89.87
1060.00,89.36
1048.00,89.65
1036.00,89.37
1024.00,90.11
1012.00,90.36
1000.00,90.92
988.00,91.17
976.00,91.80
964.00,92.07
952.00,91.76
940.00,89.29
928.00,88.24
916.00,90.65
904.00,90.59
892.00,91.89
880.00,92.20
868.00,92.49
856.00,92.47
844.00,92.36
832.00,92.31
820.00,92.09
808.00,91.79
796.00,91.02
784.00,90.65
772.00,89.95
760.00,89.10
748.00,88.18
736.00,85.43
724.00,82.62
712.00,82.15
700.00,80.21
688.00,76.51
676.00,76.66
664.00,78.78
652.00,80.89
640.00,82.49
628.00,82.66
616.00,82.91
604.00,82.14
592.00,79.54
580.00,74.05
568.00,75.07
556.00,77.27
550.00,78.94