File: raw_csv_data/Nylon 10.3.csv
Created as New Dataset,93 Du Pont
cm-1,%T
4000.00,98.71
3988.00,98.72
3976.00,98.75
3964.00,98.71
3952.00,98.75
3940.00,98.71
3928.00,98.73
3916.00,98.75
3904.00,98.75
3892.00,98.76
3880.00,98.73
3868.00,98.82
3856.00,98.80
3844.00,98.74
3832.00,98.77
3820.00,98.79
3808.00,98.63
3796.00,98.68
3784.00,98.56
3772.00,98.59
3760.00,98.51
3748.00,98.61
3736.00,98.62
3724.00,98.47
3712.00,98.48
3700.00,98.42
3688.00,98.38
3676.00,98.26
3664.00,98.17
3652.00,98.23
3640.00,98.02
3628.00,98.02
3616.00,97.93
3604.00,97.77
3592.00,97.76
3580.00,97.55
3568.00,97.34
3556.00,97.17
3544.00,96.90
3532.00,96.79
3520.00,96.43
3508.00,96.27
3496.00,96.09
3484.00,95.99
3472.00,95.88
3460.00,95.82
3448.00,95.72
3436.00,95.60
3424.00,95.63
3412.00,95.44
3400.00,95.23
3388.00,95.02
3376.00,94.64
3364.00,93.91
3352.00,92.93
3340.00,91.03
3328.00,88.15
3316.00,83.56
3304.00,78.81
3292.00,78.61
3280.00,81.47
3268.00,84.11
3256.00,86.59
3244.00,88.85
3232.00,90.54
3220.00,91.59
3208.00,92.20
3196.00,92.67
3184.00,93.29
3172.00,94.02
3160.00,94.63
3148.00,95.00
3136.00,95.12
3124.00,95.01
3112.00,94.57
3100.00,93.84
3088.00,93.20
3076.00,93.06
3064.00,93.33
3052.00,94.12
3040.00,95.16
3028.00,95.74
3016.00,96.02
3004.00,96.12
2992.00,96.04
2980.00,95.18
2968.00,92.94
2956.00,89.44
2944.00,83.39
2932.00,79.48
2920.00,82.81
2908.00,86.12
2896.00,89.25
2884.00,89.83
2872.00,86.87
2860.00,84.63
2848.00,89.27
2836.00,93.39
2824.00,94.27
2812.00,94.92
2800.00,95.35
2788.00,95.63
2776.00,95.83
2764.00,95.96
2752.00,96.03
2740.00,96.15
2728.00,96.26
2716.00,96.45
2704.00,96.46
2692.00,96.50
2680.00,96.57
2668.00,96.66
2656.00,96.55
2644.00,96.47
2632.00,96.38
2620.00,96.32
2608.00,96.22
2596.00,96.11
2584.00,96.08
2572.00,96.04
2560.00,96.03
2548.00,96.05
2536.00,96.08
2524.00,96.08
2512.00,96.10
2500.00,96.10
2488.00,96.16
2476.00,96.12
2464.00,96.13
2452.00,96.18
2440.00,96.20
2428.00,96.29
2416.00,96.35
2404.00,96.41
2392.00,96.49
2380.00,96.75
2368.00,96.82
2356.00,96.88
2344.00,96.83
2332.00,96.93
2320.00,96.52
2308.00,96.26
2296.00,96.04
2284.00,95.70
2272.00,95.50
2260.00,95.27
2248.00,95.17
2236.00,94.97
2224.00,94.77
2212.00,94.51
2200.00,94.34
2188.00,93.87
2176.00,93.89
2164.00,93.20
2152.00,94.25
2140.00,94.82
2128.00,95.17
2116.00,95.35
2104.00,95.32
2092.00,95.36
2080.00,95.23
2068.00,94.94
2056.00,94.88
2044.00,94.25
2032.00,93.98
2020.00,94.02
2008.00,94.24
1996.00,94.53
1984.00,94.22
1972.00,94.29
1960.00,94.84
1948.00,95.28
1936.00,95.55
1924.00,95.79
1912.00,95.97
1900.00,96.15
1888.00,96.26
1876.00,96.33
1864.00,96.44
1852.00,96.54
1840.00,96.68
1828.00,96.74
1816.00,96.89
1804.00,96.93
1792.00,96.97
1780.00,97.02
1768.00,96.96
1756.00,96.79
1744.00,96.46
1732.00,96.21
1720.00,96.32
1708.00,96.30
1696.00,96.23
1684.00,94.48
1672.00,89.45
1660.00,80.16
1648.00,68.11
1636.00,55.09
1624.00,59.70
1612.00,72.87
1600.00,82.15
1588.00,85.19
1576.00,82.44
1564.00,75.38
1552.00,67.33
1540.00,58.11
1528.00,55.98
1516.00,67.42
1504.00,76.66
1492.00,81.87
1480.00,79.82
1468.00,76.38
1456.00,77.52
1444.00,79.27
1432.00,79.21
1420.00,77.94
1408.00,82.88
1396.00,84.86
1384.00,82.42
1372.00,78.41
1360.00,80.07
1348.00,82.71
1336.00,84.26
1324.00,84.82
1312.00,84.41
1300.00,83.23
1288.00,81.69
1276.00,74.62
1264.00,75.73
1252.00,78.83
1240.00,80.42
1228.00,82.32
1216.00,83.86
1204.00,80.36
1192.00,79.16
1180.00,79.98
1168.00,85.03
1156.00,85.86
1144.00,83.36
1132.00,85.67
1120.00,87.52
1108.00,87.83
1096.00,88.05
1084.00,88.70
1072.00,88.91
1060.00,88.29
1048.00,88.45
1036.00,88.52
1024.00,89.32
1012.00,89.48
1000.00,90.02
988.00,90.43
976.00,91.09
964.00,91.11
952.00,90.43
940.00,87.22
928.00,86.58
916.00,89.13
904.00,88.93
892.00,90.75
880.00,90.98
868.00,91.31
856.00,91.19
844.00,90.98
832.00,90.67
820.00,90.35
808.00,89.57
796.00,88.47
784.00,87.88
772.00,86.73
760.00,85.18
748.00,83.74
736.00,79.99
724.00,75.87
712.00,75.54
700.00,73.33
688.00,69.59
676.00,69.43
664.00,71.97
652.00,74.48
640.00,76.13
628.00,76.73
616.00,77.11
604.00,75.43
592.00,73.04
580.00,67.04
568.00,68.94
556.00,70.38
550.00,73.28