File: raw_csv_data/Nylon - 14.csv
Created as New Dataset,92 Du Pont
cm-1,%T
4000.00,98.13
3988.00,98.15
3976.00,98.14
3964.00,98.20
3952.00,98.22
3940.00,98.22
3928.00,98.18
3916.00,98.19
3904.00,98.26
3892.00,98.21
3880.00,98.19
3868.00,98.19
3856.00,98.24
3844.00,98.16
3832.00,98.17
3820.00,98.14
3808.00,98.06
3796.00,98.07
3784.00,98.00
3772.00,97.94
3760.00,98.01
3748.00,98.04
3736.00,97.98
3724.00,97.79
3712.00,97.81
3700.00,97.75
3688.00,97.78
3676.00,97.75
3664.00,97.60
3652.00,97.51
3640.00,97.51
3628.00,97.53
3616.00,97.33
3604.00,97.23
3592.00,97.11
3580.00,97.09
3568.00,96.90
3556.00,96.73
3544.00,96.56
3532.00,96.37
3520.00,96.12
3508.00,95.94
3496.00,95.83
3484.00,95.72
3472.00,95.63
3460.00,95.61
3448.00,95.50
3436.00,95.41
3424.00,95.30
3412.00,95.29
3400.00,95.10
3388.00,94.86
3376.00,94.44
3364.00,93.84
3352.00,92.74
3340.00,91.05
3328.00,88.33
3316.00,83.90
3304.00,79.21
3292.00,78.89
3280.00,81.32
3268.00,83.74
3256.00,86.27
3244.00,88.54
3232.00,90.21
3220.00,91.26
3208.00,91.83
3196.00,92.33
3184.00,92.90
3172.00,93.55
3160.00,94.23
3148.00,94.60
3136.00,94.73
3124.00,94.53
3112.00,94.18
3100.00,93.47
3088.00,92.76
3076.00,92.62
3064.00,92.92
3052.00,93.75
3040.00,94.73
3028.00,95.29
3016.00,95.59
3004.00,95.74
2992.00,95.57
2980.00,94.75
2968.00,92.59
2956.00,89.28
2944.00,83.44
2932.00,79.58
2920.00,82.59
2908.00,85.50
2896.00,88.18
2884.00,88.71
2872.00,86.03
2860.00,83.85
2848.00,88.46
2836.00,92.63
2824.00,93.54
2812.00,94.18
2800.00,94.64
2788.00,95.03
2776.00,95.27
2764.00,95.40
2752.00,95.49
2740.00,95.51
2728.00,95.73
2716.00,95.89
2704.00,95.99
2692.00,95.98
2680.00,96.05
2668.00,96.11
2656.00,96.05
2644.00,95.96
2632.00,95.89
2620.00,95.80
2608.00,95.67
2596.00,95.54
2584.00,95.45
2572.00,95.44
2560.00,95.52
2548.00,95.50
2536.00,95.48
2524.00,95.52
2512.00,95.60
2500.00,95.63
2488.00,95.55
2476.00,95.58
2464.00,95.58
2452.00,95.64
2440.00,95.65
2428.00,95.73
2416.00,95.78
2404.00,95.90
2392.00,96.00
2380.00,96.22
2368.00,96.59
2356.00,96.57
2344.00,96.48
2332.00,96.38
2320.00,96.05
2308.00,96.00
2296.00,95.62
2284.00,95.21
2272.00,94.92
2260.00,94.68
2248.00,94.39
2236.00,94.27
2224.00,94.04
2212.00,93.88
2200.00,93.59
2188.00,93.35
2176.00,93.28
2164.00,92.35
2152.00,93.30
2140.00,93.98
2128.00,94.75
2116.00,94.77
2104.00,94.73
2092.00,94.79
2080.00,94.68
2068.00,94.30
2056.00,94.16
2044.00,93.59
2032.00,93.20
2020.00,93.34
2008.00,93.57
1996.00,93.87
1984.00,93.57
1972.00,93.80
1960.00,94.17
1948.00,94.61
1936.00,95.04
1924.00,95.29
1912.00,95.54
1900.00,95.72
1888.00,95.92
1876.00,95.93
1864.00,96.07
1852.00,96.19
1840.00,96.32
1828.00,96.42
1816.00,96.53
1804.00,96.60
1792.00,96.69
1780.00,96.72
1768.00,96.69
1756.00,96.52
1744.00,96.16
1732.00,95.97
1720.00,96.11
1708.00,96.14
1696.00,96.04
1684.00,94.28
1672.00,89.17
1660.00,80.10
1648.00,67.90
1636.00,54.59
1624.00,59.61
1612.00,72.66
1600.00,81.94
1588.00,85.15
1576.00,82.42
1564.00,75.44
1552.00,67.50
1540.00,58.70
1528.00,56.82
1516.00,67.65
1504.00,76.65
1492.00,81.86
1480.00,79.84
1468.00,76.17
1456.00,77.28
1444.00,79.22
1432.00,79.18
1420.00,77.93
1408.00,82.75
1396.00,84.78
1384.00,82.42
1372.00,78.52
1360.00,79.83
1348.00,82.25
1336.00,84.04
1324.00,84.67
1312.00,84.28
1300.00,83.06
1288.00,81.47
1276.00,74.67
1264.00,75.91
1252.00,78.79
1240.00,80.06
1228.00,82.10
1216.00,83.72
1204.00,80.52
1192.00,79.21
1180.00,79.89
1168.00,84.73
1156.00,85.26
1144.00,82.41
1132.00,84.52
1120.00,84.12
1108.00,85.19
1096.00,86.89
1084.00,87.96
1072.00,88.38
1060.00,87.58
1048.00,88.05
1036.00,88.23
1024.00,89.06
1012.00,89.32
1000.00,89.77
988.00,90.21
976.00,90.86
964.00,90.21
952.00,89.87
940.00,87.01
928.00,86.31
916.00,88.90
904.00,88.84
892.00,90.56
880.00,90.77
868.00,91.07
856.00,90.86
844.00,90.31
832.00,90.42
820.00,90.13
808.00,89.38
796.00,88.18
784.00,87.70
772.00,86.55
760.00,84.91
748.00,83.51
736.00,79.77
724.00,75.69
712.00,75.30
700.00,72.87
688.00,69.10
676.00,69.08
664.00,71.52
652.00,74.27
640.00,75.63
628.00,76.52
616.00,76.05
604.00,75.56
592.00,72.80
580.00,65.58
568.00,68.14
556.00,72.30
550.00,72.81