File: raw_csv_data/Nylon - 6.csv
Created as New Dataset,74 Nylon Allied Signal Fibers
cm-1,%T
4000.00,102.37
3988.00,102.21
3976.00,102.26
3964.00,102.27
3952.00,102.28
3940.00,102.24
3928.00,102.22
3916.00,102.29
3904.00,102.16
3892.00,102.18
3880.00,102.13
3868.00,102.10
3856.00,102.00
3844.00,102.16
3832.00,102.12
3820.00,102.00
3808.00,102.08
3796.00,101.99
3784.00,102.05
3772.00,102.04
3760.00,101.99
3748.00,101.82
3736.00,101.93
3724.00,101.96
3712.00,101.89
3700.00,101.98
3688.00,101.90
3676.00,101.75
3664.00,101.91
3652.00,101.68
3640.00,101.85
3628.00,101.71
3616.00,101.64
3604.00,101.69
3592.00,101.54
3580.00,101.52
3568.00,101.27
3556.00,101.26
3544.00,101.11
3532.00,100.93
3520.00,100.72
3508.00,100.57
3496.00,100.50
3484.00,100.31
3472.00,100.31
3460.00,100.16
3448.00,100.11
3436.00,99.93
3424.00,99.95
3412.00,99.79
3400.00,99.59
3388.00,99.36
3376.00,98.91
3364.00,98.21
3352.00,97.29
3340.00,95.84
3328.00,94.07
3316.00,91.95
3304.00,89.80
3292.00,89.19
3280.00,90.04
3268.00,91.35
3256.00,92.97
3244.00,94.60
3232.00,96.06
3220.00,96.84
3208.00,97.35
3196.00,97.79
3184.00,98.36
3172.00,98.89
3160.00,99.30
3148.00,99.61
3136.00,99.69
3124.00,99.46
3112.00,99.09
3100.00,98.43
3088.00,97.89
3076.00,97.79
3064.00,98.17
3052.00,98.98
3040.00,99.60
3028.00,99.97
3016.00,100.16
3004.00,100.23
2992.00,99.98
2980.00,99.00
2968.00,97.11
2956.00,94.29
2944.00,90.34
2932.00,88.73
2920.00,90.55
2908.00,93.20
2896.00,94.74
2884.00,95.49
2872.00,93.42
2860.00,92.07
2848.00,95.30
2836.00,98.59
2824.00,99.32
2812.00,99.73
2800.00,100.05
2788.00,100.17
2776.00,100.35
2764.00,100.45
2752.00,100.47
2740.00,100.52
2728.00,100.60
2716.00,100.66
2704.00,100.68
2692.00,100.75
2680.00,100.80
2668.00,100.78
2656.00,100.69
2644.00,100.66
2632.00,100.65
2620.00,100.64
2608.00,100.64
2596.00,100.65
2584.00,100.66
2572.00,100.64
2560.00,100.68
2548.00,100.65
2536.00,100.65
2524.00,100.69
2512.00,100.75
2500.00,100.63
2488.00,100.75
2476.00,100.74
2464.00,100.71
2452.00,100.70
2440.00,100.70
2428.00,100.67
2416.00,100.73
2404.00,100.79
2392.00,100.80
2380.00,100.92
2368.00,100.98
2356.00,101.00
2344.00,100.97
2332.00,100.81
2320.00,100.55
2308.00,100.55
2296.00,100.40
2284.00,100.21
2272.00,100.31
2260.00,100.13
2248.00,100.07
2236.00,100.11
2224.00,99.93
2212.00,99.83
2200.00,99.73
2188.00,99.73
2176.00,99.80
2164.00,99.13
2152.00,99.99
2140.00,100.16
2128.00,100.38
2116.00,100.15
2104.00,100.11
2092.00,100.10
2080.00,100.11
2068.00,99.86
2056.00,100.08
2044.00,99.72
2032.00,99.74
2020.00,99.83
2008.00,100.05
1996.00,99.91
1984.00,99.58
1972.00,99.87
1960.00,100.06
1948.00,100.11
1936.00,100.16
1924.00,100.25
1912.00,100.26
1900.00,100.26
1888.00,100.32
1876.00,100.26
1864.00,100.29
1852.00,100.30
1840.00,100.34
1828.00,100.26
1816.00,100.39
1804.00,100.29
1792.00,100.25
1780.00,100.20
1768.00,100.15
1756.00,99.99
1744.00,99.77
1732.00,99.63
1720.00,99.56
1708.00,99.42
1696.00,99.10
1684.00,96.64
1672.00,91.97
1660.00,85.75
1648.00,78.71
1636.00,72.28
1624.00,75.59
1612.00,84.49
1600.00,90.97
1588.00,92.39
1576.00,89.61
1564.00,83.90
1552.00,78.67
1540.00,75.08
1528.00,77.32
1516.00,83.07
1504.00,88.32
1492.00,91.57
1480.00,90.12
1468.00,88.03
1456.00,87.79
1444.00,88.53
1432.00,88.27
1420.00,88.75
1408.00,91.92
1396.00,93.57
1384.00,91.77
1372.00,89.60
1360.00,90.53
1348.00,91.92
1336.00,92.57
1324.00,93.00
1312.00,92.35
1300.00,91.78
1288.00,91.35
1276.00,90.42
1264.00,88.19
1252.00,88.91
1240.00,89.44
1228.00,91.71
1216.00,92.21
1204.00,90.71
1192.00,92.31
1180.00,93.28
1168.00,90.30
1156.00,94.21
1144.00,95.98
1132.00,96.19
1120.00,93.80
1108.00,94.37
1096.00,95.54
1084.00,95.56
1072.00,95.19
1060.00,95.94
1048.00,96.87
1036.00,96.96
1024.00,96.97
1012.00,97.23
1000.00,97.20
988.00,96.57
976.00,96.10
964.00,96.16
952.00,96.41
940.00,97.12
928.00,96.88
916.00,97.31
904.00,97.53
892.00,97.64
880.00,97.84
868.00,97.88
856.00,97.87
844.00,97.48
832.00,96.95
820.00,97.21
808.00,96.68
796.00,96.23
784.00,95.27
772.00,94.61
760.00,93.81
748.00,92.59
736.00,90.19
724.00,88.32
712.00,88.05
700.00,87.32
688.00,86.20
676.00,86.23
664.00,87.24
652.00,88.24
640.00,89.20
628.00,89.57
616.00,89.34
604.00,88.81
592.00,88.42
580.00,85.87
568.00,86.56
556.00,87.75
550.00,88.58