File: raw_csv_data/Nylon - 17.csv
Created as New Dataset,91 Du Pont
cm-1,%T
4000.00,99.43
3988.00,99.43
3976.00,99.41
3964.00,99.44
3952.00,99.45
3940.00,99.41
3928.00,99.41
3916.00,99.44
3904.00,99.43
3892.00,99.39
3880.00,99.38
3868.00,99.40
3856.00,99.48
3844.00,99.45
3832.00,99.32
3820.00,99.33
3808.00,99.36
3796.00,99.30
3784.00,99.24
3772.00,99.30
3760.00,99.20
3748.00,99.20
3736.00,99.14
3724.00,99.02
3712.00,99.12
3700.00,99.09
3688.00,98.99
3676.00,98.91
3664.00,98.92
3652.00,98.92
3640.00,98.89
3628.00,98.85
3616.00,98.70
3604.00,98.68
3592.00,98.66
3580.00,98.60
3568.00,98.42
3556.00,98.33
3544.00,98.25
3532.00,98.15
3520.00,97.95
3508.00,97.84
3496.00,97.78
3484.00,97.69
3472.00,97.63
3460.00,97.57
3448.00,97.50
3436.00,97.48
3424.00,97.39
3412.00,97.31
3400.00,97.14
3388.00,96.99
3376.00,96.70
3364.00,96.24
3352.00,95.57
3340.00,94.34
3328.00,92.41
3316.00,89.12
3304.00,85.26
3292.00,84.80
3280.00,86.73
3268.00,88.69
3256.00,90.77
3244.00,92.53
3232.00,93.84
3220.00,94.63
3208.00,95.00
3196.00,95.31
3184.00,95.78
3172.00,96.31
3160.00,96.78
3148.00,96.94
3136.00,97.06
3124.00,96.93
3112.00,96.60
3100.00,96.06
3088.00,95.58
3076.00,95.48
3064.00,95.74
3052.00,96.36
3040.00,97.09
3028.00,97.50
3016.00,97.69
3004.00,97.71
2992.00,97.60
2980.00,96.92
2968.00,95.38
2956.00,92.93
2944.00,88.52
2932.00,86.01
2920.00,88.41
2908.00,90.76
2896.00,93.02
2884.00,93.31
2872.00,91.08
2860.00,89.55
2848.00,93.06
2836.00,96.00
2824.00,96.64
2812.00,97.09
2800.00,97.35
2788.00,97.57
2776.00,97.72
2764.00,97.81
2752.00,97.84
2740.00,97.91
2728.00,98.02
2716.00,98.15
2704.00,98.16
2692.00,98.20
2680.00,98.24
2668.00,98.28
2656.00,98.25
2644.00,98.13
2632.00,98.04
2620.00,97.98
2608.00,97.86
2596.00,97.79
2584.00,97.69
2572.00,97.70
2560.00,97.71
2548.00,97.71
2536.00,97.74
2524.00,97.69
2512.00,97.73
2500.00,97.71
2488.00,97.81
2476.00,97.74
2464.00,97.76
2452.00,97.81
2440.00,97.82
2428.00,97.90
2416.00,97.96
2404.00,97.99
2392.00,98.04
2380.00,98.48
2368.00,98.56
2356.00,98.50
2344.00,98.55
2332.00,98.49
2320.00,98.27
2308.00,98.08
2296.00,97.73
2284.00,97.35
2272.00,97.17
2260.00,96.88
2248.00,96.79
2236.00,96.56
2224.00,96.35
2212.00,96.13
2200.00,95.86
2188.00,95.48
2176.00,95.48
2164.00,94.88
2152.00,95.80
2140.00,96.36
2128.00,96.92
2116.00,96.96
2104.00,96.98
2092.00,96.94
2080.00,96.83
2068.00,96.65
2056.00,96.41
2044.00,95.72
2032.00,95.42
2020.00,95.36
2008.00,95.82
1996.00,96.11
1984.00,95.81
1972.00,95.91
1960.00,96.28
1948.00,96.72
1936.00,97.09
1924.00,97.31
1912.00,97.48
1900.00,97.65
1888.00,97.76
1876.00,97.82
1864.00,97.92
1852.00,97.99
1840.00,98.09
1828.00,98.20
1816.00,98.30
1804.00,98.33
1792.00,98.36
1780.00,98.35
1768.00,98.30
1756.00,98.12
1744.00,97.85
1732.00,97.64
1720.00,97.74
1708.00,97.67
1696.00,97.62
1684.00,96.32
1672.00,92.89
1660.00,86.87
1648.00,78.67
1636.00,68.93
1624.00,72.55
1612.00,81.70
1600.00,87.98
1588.00,90.09
1576.00,87.85
1564.00,83.06
1552.00,77.57
1540.00,70.77
1528.00,69.25
1516.00,77.32
1504.00,83.94
1492.00,87.70
1480.00,85.90
1468.00,83.35
1456.00,84.52
1444.00,85.94
1432.00,85.83
1420.00,84.89
1408.00,88.25
1396.00,89.68
1384.00,87.91
1372.00,84.89
1360.00,86.24
1348.00,88.18
1336.00,89.26
1324.00,89.58
1312.00,89.42
1300.00,88.32
1288.00,87.32
1276.00,81.98
1264.00,83.02
1252.00,85.52
1240.00,86.73
1228.00,88.05
1216.00,89.27
1204.00,86.43
1192.00,85.44
1180.00,86.32
1168.00,89.78
1156.00,90.03
1144.00,88.66
1132.00,90.25
1120.00,91.46
1108.00,91.69
1096.00,91.76
1084.00,92.28
1072.00,92.42
1060.00,92.12
1048.00,92.24
1036.00,92.32
1024.00,93.03
1012.00,93.01
1000.00,93.46
988.00,93.68
976.00,94.15
964.00,94.12
952.00,93.67
940.00,91.08
928.00,90.68
916.00,92.63
904.00,92.51
892.00,93.76
880.00,93.92
868.00,94.13
856.00,94.10
844.00,93.92
832.00,93.76
820.00,93.46
808.00,92.95
796.00,92.18
784.00,91.85
772.00,91.07
760.00,90.03
748.00,88.85
736.00,86.40
724.00,83.44
712.00,83.00
700.00,81.23
688.00,78.38
676.00,78.43
664.00,80.48
652.00,82.16
640.00,83.55
628.00,84.05
616.00,84.50
604.00,83.43
592.00,81.65
580.00,76.45
568.00,77.59
556.00,79.48
550.00,81.49