File: raw_csv_data/Nylon - 3.csv
Created as New Dataset,103. Du Pont (Red thread)
cm-1,%T
4000.00,99.22
3988.00,99.20
3976.00,99.14
3964.00,99.20
3952.00,99.17
3940.00,99.18
3928.00,99.19
3916.00,99.16
3904.00,99.14
3892.00,99.10
3880.00,99.17
3868.00,99.10
3856.00,99.10
3844.00,99.10
3832.00,99.06
3820.00,99.14
3808.00,99.01
3796.00,99.03
3784.00,99.08
3772.00,99.06
3760.00,98.99
3748.00,98.92
3736.00,98.96
3724.00,98.84
3712.00,98.87
3700.00,98.57
3688.00,98.56
3676.00,98.55
3664.00,98.63
3652.00,98.58
3640.00,98.64
3628.00,98.61
3616.00,98.43
3604.00,98.59
3592.00,98.51
3580.00,98.43
3568.00,98.38
3556.00,98.33
3544.00,98.25
3532.00,98.15
3520.00,98.08
3508.00,97.98
3496.00,98.00
3484.00,97.88
3472.00,97.88
3460.00,97.81
3448.00,97.64
3436.00,97.55
3424.00,97.67
3412.00,97.65
3400.00,97.59
3388.00,97.47
3376.00,97.27
3364.00,96.99
3352.00,96.61
3340.00,95.88
3328.00,95.27
3316.00,94.45
3304.00,93.77
3292.00,93.37
3280.00,93.15
3268.00,93.31
3256.00,93.71
3244.00,94.52
3232.00,95.37
3220.00,95.88
3208.00,96.24
3196.00,96.39
3184.00,96.62
3172.00,96.94
3160.00,97.21
3148.00,97.47
3136.00,97.58
3124.00,97.55
3112.00,97.45
3100.00,97.23
3088.00,96.93
3076.00,96.67
3064.00,96.73
3052.00,97.07
3040.00,97.53
3028.00,97.79
3016.00,97.98
3004.00,98.06
2992.00,98.03
2980.00,97.76
2968.00,96.83
2956.00,94.87
2944.00,91.41
2932.00,85.46
2920.00,82.08
2908.00,85.24
2896.00,87.95
2884.00,90.88
2872.00,92.43
2860.00,88.92
2848.00,86.10
2836.00,91.96
2824.00,95.17
2812.00,96.04
2800.00,96.44
2788.00,96.84
2776.00,97.08
2764.00,97.24
2752.00,97.35
2740.00,97.44
2728.00,97.43
2716.00,97.52
2704.00,97.55
2692.00,97.59
2680.00,97.59
2668.00,97.64
2656.00,97.61
2644.00,97.59
2632.00,97.53
2620.00,97.55
2608.00,97.51
2596.00,97.52
2584.00,97.50
2572.00,97.49
2560.00,97.51
2548.00,97.53
2536.00,97.56
2524.00,97.61
2512.00,97.64
2500.00,97.58
2488.00,97.59
2476.00,97.67
2464.00,97.64
2452.00,97.67
2440.00,97.70
2428.00,97.76
2416.00,97.73
2404.00,97.78
2392.00,97.88
2380.00,97.95
2368.00,97.95
2356.00,97.85
2344.00,98.01
2332.00,98.02
2320.00,97.81
2308.00,97.81
2296.00,97.73
2284.00,97.50
2272.00,97.38
2260.00,97.28
2248.00,97.28
2236.00,97.12
2224.00,97.05
2212.00,96.90
2200.00,96.69
2188.00,96.77
2176.00,96.65
2164.00,96.39
2152.00,96.84
2140.00,97.08
2128.00,97.33
2116.00,97.31
2104.00,97.45
2092.00,97.51
2080.00,97.35
2068.00,97.37
2056.00,97.16
2044.00,96.87
2032.00,96.81
2020.00,96.83
2008.00,96.98
1996.00,97.07
1984.00,96.84
1972.00,96.91
1960.00,97.20
1948.00,97.39
1936.00,97.60
1924.00,97.77
1912.00,97.88
1900.00,97.96
1888.00,98.05
1876.00,98.08
1864.00,98.20
1852.00,98.22
1840.00,98.28
1828.00,98.38
1816.00,98.46
1804.00,98.53
1792.00,98.55
1780.00,98.56
1768.00,98.59
1756.00,98.48
1744.00,98.24
1732.00,98.04
1720.00,97.90
1708.00,97.87
1696.00,98.20
1684.00,96.91
1672.00,93.75
1660.00,89.08
1648.00,82.65
1636.00,77.09
1624.00,80.37
1612.00,87.14
1600.00,91.85
1588.00,93.57
1576.00,92.61
1564.00,88.22
1552.00,81.65
1540.00,77.97
1528.00,79.64
1516.00,83.99
1504.00,87.31
1492.00,90.37
1480.00,92.37
1468.00,90.01
1456.00,88.90
1444.00,86.49
1432.00,90.01
1420.00,91.28
1408.00,93.21
1396.00,93.80
1384.00,92.80
1372.00,91.84
1360.00,90.91
1348.00,91.29
1336.00,91.29
1324.00,92.38
1312.00,92.61
1300.00,92.52
1288.00,93.18
1276.00,92.15
1264.00,91.59
1252.00,91.06
1240.00,91.29
1228.00,91.62
1216.00,92.15
1204.00,92.88
1192.00,93.45
1180.00,94.03
1168.00,94.23
1156.00,93.14
1144.00,94.42
1132.00,91.94
1120.00,91.66
1108.00,92.22
1096.00,92.61
1084.00,93.95
1072.00,94.60
1060.00,94.78
1048.00,94.60
1036.00,93.25
1024.00,93.64
1012.00,93.74
1000.00,94.44
988.00,95.39
976.00,95.29
964.00,94.20
952.00,94.50
940.00,94.92
928.00,95.46
916.00,94.98
904.00,94.26
892.00,94.93
880.00,96.37
868.00,96.79
856.00,97.11
844.00,97.14
832.00,97.08
820.00,96.94
808.00,97.03
796.00,96.61
784.00,96.31
772.00,96.11
760.00,95.34
748.00,94.70
736.00,93.72
724.00,91.51
712.00,91.32
700.00,90.74
688.00,90.63
676.00,91.62
664.00,92.09
652.00,92.18
640.00,91.60
628.00,91.85
616.00,92.37
604.00,92.44
592.00,91.40
580.00,91.23
568.00,91.83
556.00,89.87
550.00,91.67