File: raw_csv_data/Nylon - 10.1.csv
Created as New Dataset,91 Du Pont
cm-1,%T
4000.00,99.65
3988.00,99.63
3976.00,99.59
3964.00,99.63
3952.00,99.71
3940.00,99.64
3928.00,99.61
3916.00,99.57
3904.00,99.68
3892.00,99.62
3880.00,99.65
3868.00,99.45
3856.00,99.54
3844.00,99.50
3832.00,99.52
3820.00,99.46
3808.00,99.51
3796.00,99.43
3784.00,99.50
3772.00,99.45
3760.00,99.41
3748.00,99.34
3736.00,99.31
3724.00,99.29
3712.00,99.32
3700.00,99.31
3688.00,99.25
3676.00,99.19
3664.00,99.19
3652.00,99.05
3640.00,99.10
3628.00,99.08
3616.00,98.97
3604.00,98.87
3592.00,98.85
3580.00,98.78
3568.00,98.60
3556.00,98.51
3544.00,98.34
3532.00,98.30
3520.00,98.16
3508.00,97.91
3496.00,97.81
3484.00,97.78
3472.00,97.75
3460.00,97.67
3448.00,97.50
3436.00,97.48
3424.00,97.44
3412.00,97.38
3400.00,97.21
3388.00,96.96
3376.00,96.69
3364.00,96.15
3352.00,95.33
3340.00,94.01
3328.00,91.83
3316.00,88.20
3304.00,83.86
3292.00,83.12
3280.00,85.39
3268.00,87.74
3256.00,90.01
3244.00,91.94
3232.00,93.39
3220.00,94.27
3208.00,94.70
3196.00,95.13
3184.00,95.57
3172.00,96.14
3160.00,96.65
3148.00,96.92
3136.00,97.01
3124.00,96.88
3112.00,96.52
3100.00,95.99
3088.00,95.42
3076.00,95.32
3064.00,95.49
3052.00,96.21
3040.00,97.00
3028.00,97.50
3016.00,97.73
3004.00,97.77
2992.00,97.63
2980.00,96.91
2968.00,95.12
2956.00,92.54
2944.00,87.68
2932.00,84.92
2920.00,87.59
2908.00,90.12
2896.00,92.57
2884.00,92.84
2872.00,90.40
2860.00,88.74
2848.00,92.61
2836.00,95.84
2824.00,96.49
2812.00,96.98
2800.00,97.35
2788.00,97.54
2776.00,97.69
2764.00,97.78
2752.00,97.86
2740.00,97.92
2728.00,98.04
2716.00,98.17
2704.00,98.23
2692.00,98.24
2680.00,98.30
2668.00,98.30
2656.00,98.29
2644.00,98.20
2632.00,98.12
2620.00,98.05
2608.00,98.00
2596.00,97.91
2584.00,97.88
2572.00,97.85
2560.00,97.90
2548.00,97.86
2536.00,97.90
2524.00,97.99
2512.00,98.00
2500.00,98.00
2488.00,97.96
2476.00,97.94
2464.00,98.00
2452.00,97.99
2440.00,98.07
2428.00,98.06
2416.00,98.07
2404.00,98.10
2392.00,98.28
2380.00,98.43
2368.00,98.45
2356.00,98.52
2344.00,98.45
2332.00,98.44
2320.00,98.22
2308.00,98.09
2296.00,97.93
2284.00,97.58
2272.00,97.45
2260.00,97.21
2248.00,97.12
2236.00,96.97
2224.00,96.95
2212.00,96.72
2200.00,96.52
2188.00,96.17
2176.00,96.04
2164.00,95.48
2152.00,96.35
2140.00,96.90
2128.00,97.23
2116.00,97.27
2104.00,97.18
2092.00,97.26
2080.00,97.20
2068.00,97.07
2056.00,96.94
2044.00,96.36
2032.00,96.06
2020.00,96.02
2008.00,96.48
1996.00,96.58
1984.00,96.35
1972.00,96.44
1960.00,96.80
1948.00,97.24
1936.00,97.39
1924.00,97.61
1912.00,97.73
1900.00,97.83
1888.00,97.90
1876.00,97.94
1864.00,98.05
1852.00,98.19
1840.00,98.18
1828.00,98.24
1816.00,98.37
1804.00,98.34
1792.00,98.34
1780.00,98.34
1768.00,98.26
1756.00,98.10
1744.00,97.80
1732.00,97.64
1720.00,97.69
1708.00,97.58
1696.00,97.43
1684.00,95.99
1672.00,92.15
1660.00,85.56
1648.00,76.53
1636.00,65.46
1624.00,68.41
1612.00,78.74
1600.00,86.20
1588.00,88.87
1576.00,86.66
1564.00,81.35
1552.00,75.42
1540.00,68.65
1528.00,68.32
1516.00,77.01
1504.00,83.81
1492.00,87.47
1480.00,85.15
1468.00,82.17
1456.00,83.46
1444.00,84.96
1432.00,84.83
1420.00,83.41
1408.00,87.15
1396.00,88.92
1384.00,87.05
1372.00,84.10
1360.00,85.41
1348.00,87.36
1336.00,88.49
1324.00,88.85
1312.00,88.61
1300.00,87.51
1288.00,86.36
1276.00,81.35
1264.00,82.69
1252.00,84.98
1240.00,86.13
1228.00,87.42
1216.00,88.63
1204.00,85.96
1192.00,85.38
1180.00,85.86
1168.00,89.55
1156.00,89.81
1144.00,88.13
1132.00,89.95
1120.00,91.09
1108.00,91.39
1096.00,91.54
1084.00,91.97
1072.00,92.05
1060.00,91.77
1048.00,91.99
1036.00,92.00
1024.00,92.54
1012.00,92.59
1000.00,93.01
988.00,93.38
976.00,93.77
964.00,93.73
952.00,93.17
940.00,90.42
928.00,90.20
916.00,92.15
904.00,91.99
892.00,93.33
880.00,93.51
868.00,93.79
856.00,93.56
844.00,93.22
832.00,93.14
820.00,92.69
808.00,92.16
796.00,91.26
784.00,90.95
772.00,90.00
760.00,88.73
748.00,87.73
736.00,84.69
724.00,81.56
712.00,81.04
700.00,78.88
688.00,75.42
676.00,75.97
664.00,78.07
652.00,79.98
640.00,81.71
628.00,81.48
616.00,81.63
604.00,80.96
592.00,79.89
580.00,74.21
568.00,76.81
556.00,80.17
550.00,81.01