File: raw_csv_data/Nylon - 1.csv
Created as New Dataset,90. Du Pont
cm-1,%T
4000.00,100.14
3988.00,100.01
3976.00,100.03
3964.00,100.07
3952.00,100.05
3940.00,100.14
3928.00,100.14
3916.00,100.08
3904.00,100.08
3892.00,100.10
3880.00,100.07
3868.00,100.11
3856.00,100.22
3844.00,100.16
3832.00,100.05
3820.00,100.11
3808.00,100.13
3796.00,99.99
3784.00,100.05
3772.00,100.02
3760.00,100.03
3748.00,100.17
3736.00,100.07
3724.00,100.04
3712.00,100.06
3700.00,99.96
3688.00,99.86
3676.00,99.88
3664.00,99.84
3652.00,99.87
3640.00,99.78
3628.00,99.84
3616.00,99.86
3604.00,99.71
3592.00,99.71
3580.00,99.57
3568.00,99.67
3556.00,99.37
3544.00,99.38
3532.00,99.27
3520.00,99.15
3508.00,99.08
3496.00,99.01
3484.00,98.99
3472.00,98.98
3460.00,98.93
3448.00,98.87
3436.00,98.84
3424.00,98.86
3412.00,98.83
3400.00,98.73
3388.00,98.61
3376.00,98.48
3364.00,98.28
3352.00,97.95
3340.00,97.40
3328.00,96.37
3316.00,94.39
3304.00,91.44
3292.00,91.27
3280.00,92.97
3268.00,94.14
3256.00,95.13
3244.00,95.92
3232.00,96.66
3220.00,97.05
3208.00,97.32
3196.00,97.46
3184.00,97.73
3172.00,97.99
3160.00,98.30
3148.00,98.37
3136.00,98.50
3124.00,98.42
3112.00,98.33
3100.00,98.03
3088.00,97.78
3076.00,97.69
3064.00,97.76
3052.00,97.98
3040.00,98.46
3028.00,98.72
3016.00,98.85
3004.00,98.91
2992.00,98.85
2980.00,98.64
2968.00,97.82
2956.00,96.59
2944.00,93.89
2932.00,92.25
2920.00,93.46
2908.00,94.83
2896.00,96.17
2884.00,96.32
2872.00,95.10
2860.00,94.28
2848.00,95.84
2836.00,97.56
2824.00,97.89
2812.00,98.16
2800.00,98.29
2788.00,98.45
2776.00,98.50
2764.00,98.57
2752.00,98.58
2740.00,98.64
2728.00,98.69
2716.00,98.77
2704.00,98.78
2692.00,98.79
2680.00,98.83
2668.00,98.82
2656.00,98.83
2644.00,98.83
2632.00,98.75
2620.00,98.82
2608.00,98.72
2596.00,98.70
2584.00,98.66
2572.00,98.70
2560.00,98.69
2548.00,98.70
2536.00,98.72
2524.00,98.73
2512.00,98.73
2500.00,98.72
2488.00,98.67
2476.00,98.74
2464.00,98.75
2452.00,98.75
2440.00,98.73
2428.00,98.76
2416.00,98.75
2404.00,98.75
2392.00,98.80
2380.00,98.86
2368.00,98.87
2356.00,98.86
2344.00,98.78
2332.00,98.73
2320.00,98.68
2308.00,98.77
2296.00,98.67
2284.00,98.57
2272.00,98.55
2260.00,98.55
2248.00,98.47
2236.00,98.40
2224.00,98.50
2212.00,98.26
2200.00,98.20
2188.00,98.24
2176.00,98.12
2164.00,98.11
2152.00,98.26
2140.00,98.35
2128.00,98.47
2116.00,98.48
2104.00,98.49
2092.00,98.40
2080.00,98.40
2068.00,98.40
2056.00,98.25
2044.00,98.24
2032.00,98.17
2020.00,98.25
2008.00,98.37
1996.00,98.39
1984.00,98.27
1972.00,98.27
1960.00,98.44
1948.00,98.49
1936.00,98.56
1924.00,98.51
1912.00,98.58
1900.00,98.65
1888.00,98.74
1876.00,98.75
1864.00,98.82
1852.00,98.75
1840.00,98.87
1828.00,98.95
1816.00,98.93
1804.00,98.95
1792.00,99.02
1780.00,99.04
1768.00,98.96
1756.00,98.98
1744.00,98.88
1732.00,98.83
1720.00,98.86
1708.00,98.87
1696.00,98.97
1684.00,98.56
1672.00,96.99
1660.00,93.52
1648.00,88.87
1636.00,82.67
1624.00,83.77
1612.00,88.81
1600.00,92.43
1588.00,94.01
1576.00,93.27
1564.00,90.85
1552.00,87.94
1540.00,83.38
1528.00,81.47
1516.00,86.42
1504.00,90.12
1492.00,92.08
1480.00,91.54
1468.00,89.73
1456.00,90.53
1444.00,91.26
1432.00,91.35
1420.00,90.74
1408.00,92.29
1396.00,93.26
1384.00,92.47
1372.00,90.75
1360.00,91.43
1348.00,92.42
1336.00,93.16
1324.00,93.40
1312.00,93.47
1300.00,92.98
1288.00,92.50
1276.00,89.00
1264.00,89.64
1252.00,91.07
1240.00,91.95
1228.00,92.70
1216.00,93.39
1204.00,91.92
1192.00,90.83
1180.00,91.45
1168.00,93.19
1156.00,93.60
1144.00,92.89
1132.00,93.46
1120.00,94.23
1108.00,94.37
1096.00,94.41
1084.00,94.69
1072.00,94.90
1060.00,94.64
1048.00,94.78
1036.00,94.72
1024.00,95.11
1012.00,95.17
1000.00,95.42
988.00,95.64
976.00,95.96
964.00,96.00
952.00,95.82
940.00,94.47
928.00,93.75
916.00,95.11
904.00,95.01
892.00,95.78
880.00,95.89
868.00,95.98
856.00,96.07
844.00,96.11
832.00,96.03
820.00,95.89
808.00,95.63
796.00,95.39
784.00,95.15
772.00,94.84
760.00,94.27
748.00,93.85
736.00,92.56
724.00,90.79
712.00,90.40
700.00,89.26
688.00,86.55
676.00,86.76
664.00,88.18
652.00,89.64
640.00,90.09
628.00,90.35
616.00,90.35
604.00,90.00
592.00,89.23
580.00,85.71
568.00,86.40
556.00,89.05
550.00,90.11