File: raw_csv_data/Nylon - 8.csv
Created as New Dataset,76 Nylon Allied Signal Fibers USA PA-6. 2-ply cabled and autoclave heat set yarn. 3 of 7 in a series of fiber processing techniques
cm-1,%T
4000.00,102.88
3988.00,102.91
3976.00,102.89
3964.00,102.89
3952.00,102.88
3940.00,102.91
3928.00,102.85
3916.00,102.86
3904.00,102.81
3892.00,102.84
3880.00,102.82
3868.00,102.76
3856.00,102.76
3844.00,102.87
3832.00,102.77
3820.00,102.76
3808.00,102.79
3796.00,102.80
3784.00,102.75
3772.00,102.80
3760.00,102.80
3748.00,102.65
3736.00,102.74
3724.00,102.83
3712.00,102.71
3700.00,102.82
3688.00,102.70
3676.00,102.73
3664.00,102.81
3652.00,102.66
3640.00,102.67
3628.00,102.52
3616.00,102.59
3604.00,102.50
3592.00,102.46
3580.00,102.47
3568.00,102.29
3556.00,102.24
3544.00,102.15
3532.00,102.04
3520.00,101.90
3508.00,101.86
3496.00,101.74
3484.00,101.70
3472.00,101.68
3460.00,101.59
3448.00,101.46
3436.00,101.47
3424.00,101.37
3412.00,101.29
3400.00,101.18
3388.00,101.00
3376.00,100.81
3364.00,100.33
3352.00,99.77
3340.00,98.85
3328.00,97.57
3316.00,95.99
3304.00,93.92
3292.00,93.52
3280.00,94.70
3268.00,95.83
3256.00,97.01
3244.00,98.15
3232.00,99.08
3220.00,99.59
3208.00,99.89
3196.00,100.11
3184.00,100.43
3172.00,100.80
3160.00,101.08
3148.00,101.21
3136.00,101.30
3124.00,101.22
3112.00,100.91
3100.00,100.64
3088.00,100.20
3076.00,100.13
3064.00,100.30
3052.00,100.74
3040.00,101.18
3028.00,101.50
3016.00,101.62
3004.00,101.62
2992.00,101.46
2980.00,100.90
2968.00,99.69
2956.00,97.78
2944.00,94.71
2932.00,93.69
2920.00,95.12
2908.00,96.86
2896.00,97.82
2884.00,98.45
2872.00,96.79
2860.00,96.16
2848.00,98.20
2836.00,100.48
2824.00,100.96
2812.00,101.24
2800.00,101.43
2788.00,101.53
2776.00,101.60
2764.00,101.64
2752.00,101.71
2740.00,101.77
2728.00,101.80
2716.00,101.84
2704.00,101.85
2692.00,101.92
2680.00,101.93
2668.00,101.97
2656.00,101.88
2644.00,101.98
2632.00,101.96
2620.00,102.02
2608.00,102.04
2596.00,102.08
2584.00,102.06
2572.00,102.15
2560.00,102.08
2548.00,102.16
2536.00,102.10
2524.00,102.13
2512.00,102.18
2500.00,102.16
2488.00,102.19
2476.00,102.17
2464.00,102.19
2452.00,102.11
2440.00,102.15
2428.00,102.17
2416.00,102.18
2404.00,102.13
2392.00,102.12
2380.00,102.10
2368.00,102.04
2356.00,101.92
2344.00,101.94
2332.00,101.81
2320.00,101.84
2308.00,101.90
2296.00,102.00
2284.00,102.04
2272.00,102.16
2260.00,102.17
2248.00,102.23
2236.00,102.39
2224.00,102.22
2212.00,102.34
2200.00,102.45
2188.00,102.31
2176.00,102.39
2164.00,102.35
2152.00,102.61
2140.00,102.31
2128.00,102.27
2116.00,101.99
2104.00,102.20
2092.00,102.16
2080.00,102.09
2068.00,102.28
2056.00,102.27
2044.00,102.38
2032.00,102.46
2020.00,102.42
2008.00,102.38
1996.00,102.49
1984.00,102.37
1972.00,102.20
1960.00,102.44
1948.00,102.31
1936.00,102.19
1924.00,102.15
1912.00,102.12
1900.00,102.01
1888.00,102.08
1876.00,102.04
1864.00,102.01
1852.00,102.04
1840.00,101.99
1828.00,102.02
1816.00,102.05
1804.00,102.02
1792.00,101.97
1780.00,101.90
1768.00,101.90
1756.00,101.81
1744.00,101.64
1732.00,101.44
1720.00,101.49
1708.00,101.45
1696.00,101.17
1684.00,99.77
1672.00,96.61
1660.00,92.05
1648.00,87.17
1636.00,82.29
1624.00,85.07
1612.00,91.37
1600.00,95.77
1588.00,96.87
1576.00,95.18
1564.00,91.60
1552.00,87.86
1540.00,84.17
1528.00,85.59
1516.00,89.86
1504.00,93.63
1492.00,96.07
1480.00,94.46
1468.00,93.61
1456.00,93.62
1444.00,94.31
1432.00,94.25
1420.00,94.20
1408.00,96.25
1396.00,97.61
1384.00,96.33
1372.00,94.66
1360.00,95.52
1348.00,96.45
1336.00,96.98
1324.00,97.37
1312.00,97.02
1300.00,96.54
1288.00,96.15
1276.00,95.65
1264.00,93.32
1252.00,94.45
1240.00,95.07
1228.00,96.79
1216.00,97.01
1204.00,95.62
1192.00,96.60
1180.00,97.67
1168.00,95.84
1156.00,98.52
1144.00,99.69
1132.00,99.76
1120.00,98.35
1108.00,98.68
1096.00,99.51
1084.00,99.57
1072.00,99.54
1060.00,99.95
1048.00,100.47
1036.00,100.60
1024.00,100.66
1012.00,100.89
1000.00,100.93
988.00,100.65
976.00,100.36
964.00,100.23
952.00,100.35
940.00,100.93
928.00,100.45
916.00,101.11
904.00,101.38
892.00,101.55
880.00,101.64
868.00,101.74
856.00,101.85
844.00,101.55
832.00,101.16
820.00,101.45
808.00,101.28
796.00,100.93
784.00,100.44
772.00,99.90
760.00,99.57
748.00,98.83
736.00,97.12
724.00,95.78
712.00,95.41
700.00,94.83
688.00,92.97
676.00,93.22
664.00,94.35
652.00,95.45
640.00,96.17
628.00,95.77
616.00,96.21
604.00,96.42
592.00,95.66
580.00,93.89
568.00,94.13
556.00,96.07
550.00,93.72