File: raw_csv_data/Nylon - 9.csv
Created as New Dataset,79. Nylon Allied Signal Fibers Dyed
cm-1,%T
4000.00,98.50
3988.00,98.46
3976.00,98.45
3964.00,98.46
3952.00,98.53
3940.00,98.53
3928.00,98.50
3916.00,98.48
3904.00,98.52
3892.00,98.54
3880.00,98.57
3868.00,98.57
3856.00,98.49
3844.00,98.59
3832.00,98.57
3820.00,98.59
3808.00,98.55
3796.00,98.52
3784.00,98.48
3772.00,98.56
3760.00,98.50
3748.00,98.48
3736.00,98.48
3724.00,98.43
3712.00,98.48
3700.00,98.49
3688.00,98.42
3676.00,98.40
3664.00,98.32
3652.00,98.37
3640.00,98.28
3628.00,98.26
3616.00,98.22
3604.00,98.12
3592.00,98.16
3580.00,98.04
3568.00,97.97
3556.00,97.79
3544.00,97.73
3532.00,97.73
3520.00,97.56
3508.00,97.45
3496.00,97.42
3484.00,97.35
3472.00,97.34
3460.00,97.29
3448.00,97.25
3436.00,97.24
3424.00,97.08
3412.00,97.03
3400.00,96.85
3388.00,96.71
3376.00,96.43
3364.00,96.11
3352.00,95.55
3340.00,94.63
3328.00,92.80
3316.00,90.08
3304.00,85.59
3292.00,83.67
3280.00,87.54
3268.00,90.21
3256.00,92.19
3244.00,93.59
3232.00,94.52
3220.00,95.08
3208.00,95.34
3196.00,95.56
3184.00,95.78
3172.00,96.26
3160.00,96.61
3148.00,96.82
3136.00,96.89
3124.00,96.82
3112.00,96.62
3100.00,96.25
3088.00,95.93
3076.00,95.68
3064.00,95.60
3052.00,96.01
3040.00,96.71
3028.00,97.12
3016.00,97.27
3004.00,97.27
2992.00,97.10
2980.00,96.63
2968.00,95.24
2956.00,92.93
2944.00,88.21
2932.00,87.59
2920.00,89.85
2908.00,91.88
2896.00,92.65
2884.00,93.47
2872.00,90.81
2860.00,90.89
2848.00,93.27
2836.00,96.01
2824.00,96.51
2812.00,96.85
2800.00,97.10
2788.00,97.26
2776.00,97.41
2764.00,97.50
2752.00,97.51
2740.00,97.55
2728.00,97.67
2716.00,97.81
2704.00,97.87
2692.00,97.89
2680.00,97.89
2668.00,97.95
2656.00,97.94
2644.00,97.91
2632.00,97.92
2620.00,97.81
2608.00,97.87
2596.00,97.77
2584.00,97.82
2572.00,97.82
2560.00,97.80
2548.00,97.78
2536.00,97.84
2524.00,97.91
2512.00,97.92
2500.00,97.92
2488.00,97.92
2476.00,98.00
2464.00,98.02
2452.00,98.05
2440.00,98.00
2428.00,98.10
2416.00,98.07
2404.00,98.16
2392.00,98.12
2380.00,98.33
2368.00,98.45
2356.00,98.41
2344.00,98.53
2332.00,98.50
2320.00,98.25
2308.00,98.22
2296.00,98.18
2284.00,98.06
2272.00,98.02
2260.00,97.93
2248.00,97.99
2236.00,97.87
2224.00,97.71
2212.00,97.61
2200.00,97.68
2188.00,97.39
2176.00,97.35
2164.00,97.25
2152.00,97.50
2140.00,97.80
2128.00,97.96
2116.00,97.99
2104.00,98.02
2092.00,98.10
2080.00,97.98
2068.00,97.89
2056.00,97.84
2044.00,97.62
2032.00,97.38
2020.00,97.44
2008.00,97.67
1996.00,97.60
1984.00,97.50
1972.00,97.63
1960.00,97.90
1948.00,97.95
1936.00,98.10
1924.00,98.08
1912.00,98.27
1900.00,98.29
1888.00,98.37
1876.00,98.45
1864.00,98.40
1852.00,98.48
1840.00,98.45
1828.00,98.42
1816.00,98.62
1804.00,98.57
1792.00,98.55
1780.00,98.48
1768.00,98.48
1756.00,98.29
1744.00,97.68
1732.00,97.13
1720.00,96.89
1708.00,96.80
1696.00,97.06
1684.00,95.68
1672.00,92.57
1660.00,86.77
1648.00,80.20
1636.00,70.03
1624.00,74.78
1612.00,82.76
1600.00,89.16
1588.00,91.43
1576.00,90.00
1564.00,85.92
1552.00,80.32
1540.00,74.11
1528.00,77.84
1516.00,84.43
1504.00,89.31
1492.00,91.66
1480.00,87.72
1468.00,87.71
1456.00,87.99
1444.00,89.08
1432.00,89.37
1420.00,87.48
1408.00,89.85
1396.00,92.21
1384.00,90.72
1372.00,88.61
1360.00,89.91
1348.00,90.98
1336.00,91.76
1324.00,92.45
1312.00,92.08
1300.00,91.27
1288.00,90.59
1276.00,89.83
1264.00,86.08
1252.00,88.61
1240.00,89.45
1228.00,91.84
1216.00,91.16
1204.00,89.29
1192.00,90.64
1180.00,91.84
1168.00,89.72
1156.00,92.83
1144.00,94.59
1132.00,95.05
1120.00,93.71
1108.00,94.08
1096.00,95.18
1084.00,95.27
1072.00,95.14
1060.00,95.85
1048.00,96.58
1036.00,96.46
1024.00,96.20
1012.00,96.81
1000.00,96.97
988.00,96.53
976.00,96.24
964.00,95.44
952.00,95.37
940.00,96.49
928.00,95.48
916.00,96.82
904.00,97.26
892.00,97.36
880.00,97.43
868.00,97.48
856.00,97.47
844.00,97.28
832.00,96.16
820.00,96.90
808.00,96.47
796.00,95.97
784.00,95.39
772.00,94.81
760.00,94.19
748.00,93.28
736.00,91.06
724.00,88.87
712.00,87.69
700.00,85.68
688.00,81.80
676.00,82.49
664.00,84.89
652.00,86.98
640.00,88.06
628.00,88.18
616.00,88.51
604.00,88.23
592.00,87.30
580.00,82.04
568.00,82.37
556.00,86.23
550.00,87.23