File: raw_csv_data/Nylon - 15.csv
Created as New Dataset,87. BASF
cm-1,%T
4000.00,101.47
3988.00,101.51
3976.00,101.50
3964.00,101.54
3952.00,101.52
3940.00,101.60
3928.00,101.57
3916.00,101.50
3904.00,101.60
3892.00,101.53
3880.00,101.58
3868.00,101.60
3856.00,101.59
3844.00,101.54
3832.00,101.51
3820.00,101.48
3808.00,101.45
3796.00,101.47
3784.00,101.39
3772.00,101.32
3760.00,101.45
3748.00,101.48
3736.00,101.46
3724.00,101.35
3712.00,101.31
3700.00,101.23
3688.00,101.25
3676.00,101.30
3664.00,101.22
3652.00,101.12
3640.00,101.11
3628.00,101.19
3616.00,101.06
3604.00,101.02
3592.00,100.95
3580.00,100.88
3568.00,100.87
3556.00,100.80
3544.00,100.79
3532.00,100.59
3520.00,100.54
3508.00,100.52
3496.00,100.42
3484.00,100.33
3472.00,100.31
3460.00,100.25
3448.00,100.26
3436.00,100.16
3424.00,100.18
3412.00,100.11
3400.00,100.04
3388.00,99.94
3376.00,99.77
3364.00,99.50
3352.00,99.08
3340.00,98.28
3328.00,97.06
3316.00,95.13
3304.00,92.74
3292.00,92.19
3280.00,93.95
3268.00,95.33
3256.00,96.51
3244.00,97.54
3232.00,98.16
3220.00,98.58
3208.00,98.79
3196.00,98.95
3184.00,99.17
3172.00,99.47
3160.00,99.78
3148.00,99.89
3136.00,99.97
3124.00,99.86
3112.00,99.71
3100.00,99.42
3088.00,99.19
3076.00,99.07
3064.00,99.12
3052.00,99.40
3040.00,99.84
3028.00,100.15
3016.00,100.27
3004.00,100.28
2992.00,100.20
2980.00,99.89
2968.00,98.91
2956.00,97.39
2944.00,94.52
2932.00,93.58
2920.00,94.29
2908.00,96.01
2896.00,96.78
2884.00,97.39
2872.00,95.83
2860.00,95.39
2848.00,96.56
2836.00,98.97
2824.00,99.46
2812.00,99.71
2800.00,99.92
2788.00,100.04
2776.00,100.14
2764.00,100.19
2752.00,100.23
2740.00,100.20
2728.00,100.28
2716.00,100.35
2704.00,100.42
2692.00,100.41
2680.00,100.42
2668.00,100.42
2656.00,100.40
2644.00,100.32
2632.00,100.25
2620.00,100.23
2608.00,100.18
2596.00,100.11
2584.00,100.03
2572.00,100.06
2560.00,100.05
2548.00,100.02
2536.00,99.97
2524.00,99.99
2512.00,100.06
2500.00,100.06
2488.00,100.05
2476.00,99.99
2464.00,100.04
2452.00,100.01
2440.00,100.13
2428.00,100.10
2416.00,100.11
2404.00,100.17
2392.00,100.22
2380.00,100.28
2368.00,100.40
2356.00,100.37
2344.00,100.30
2332.00,100.32
2320.00,100.04
2308.00,100.08
2296.00,99.88
2284.00,99.63
2272.00,99.53
2260.00,99.40
2248.00,99.26
2236.00,99.12
2224.00,99.02
2212.00,99.02
2200.00,98.69
2188.00,98.47
2176.00,98.46
2164.00,98.00
2152.00,98.61
2140.00,98.89
2128.00,99.36
2116.00,99.37
2104.00,99.31
2092.00,99.43
2080.00,99.34
2068.00,99.09
2056.00,98.93
2044.00,98.50
2032.00,98.39
2020.00,98.49
2008.00,98.63
1996.00,98.65
1984.00,98.48
1972.00,98.56
1960.00,98.88
1948.00,99.11
1936.00,99.43
1924.00,99.42
1912.00,99.59
1900.00,99.74
1888.00,99.83
1876.00,99.84
1864.00,99.89
1852.00,99.92
1840.00,99.97
1828.00,100.04
1816.00,100.04
1804.00,100.08
1792.00,100.15
1780.00,100.10
1768.00,100.09
1756.00,99.89
1744.00,99.71
1732.00,99.55
1720.00,99.65
1708.00,99.67
1696.00,99.82
1684.00,99.06
1672.00,96.50
1660.00,92.12
1648.00,87.30
1636.00,80.83
1624.00,83.79
1612.00,89.33
1600.00,93.57
1588.00,95.03
1576.00,94.11
1564.00,90.96
1552.00,87.47
1540.00,84.03
1528.00,85.86
1516.00,89.95
1504.00,93.31
1492.00,94.86
1480.00,92.76
1468.00,92.26
1456.00,92.14
1444.00,92.79
1432.00,92.84
1420.00,91.95
1408.00,93.48
1396.00,95.00
1384.00,94.01
1372.00,92.61
1360.00,93.08
1348.00,93.98
1336.00,94.41
1324.00,94.84
1312.00,94.57
1300.00,94.21
1288.00,93.87
1276.00,93.32
1264.00,91.09
1252.00,92.21
1240.00,92.83
1228.00,94.31
1216.00,94.02
1204.00,92.85
1192.00,93.78
1180.00,94.67
1168.00,93.09
1156.00,95.15
1144.00,95.98
1132.00,96.03
1120.00,94.93
1108.00,95.07
1096.00,95.74
1084.00,95.87
1072.00,95.71
1060.00,96.15
1048.00,96.61
1036.00,96.57
1024.00,96.49
1012.00,96.84
1000.00,96.85
988.00,96.60
976.00,96.22
964.00,95.91
952.00,95.82
940.00,96.62
928.00,96.07
916.00,96.67
904.00,96.91
892.00,97.02
880.00,96.97
868.00,97.06
856.00,97.00
844.00,96.93
832.00,96.16
820.00,96.60
808.00,96.27
796.00,95.94
784.00,95.52
772.00,95.05
760.00,94.52
748.00,93.56
736.00,92.15
724.00,90.40
712.00,89.88
700.00,88.53
688.00,86.24
676.00,86.35
664.00,87.59
652.00,88.97
640.00,89.42
628.00,89.90
616.00,89.32
604.00,89.78
592.00,87.80
580.00,87.00
568.00,85.39
556.00,87.49
550.00,86.09