File: raw_csv_data/Nylon - 4.csv
Created as New Dataset,77 Nylon Allied Signal Fibers USA PA-6. Superba heat set 1190d. carpet yarn. No after-treatment. 4 of 7 in a series of fiber processing techniques
cm-1,%T
4000.00,103.11
3988.00,103.04
3976.00,103.08
3964.00,103.09
3952.00,103.17
3940.00,103.17
3928.00,103.19
3916.00,103.13
3904.00,103.34
3892.00,103.13
3880.00,103.18
3868.00,103.29
3856.00,103.59
3844.00,103.20
3832.00,103.21
3820.00,103.28
3808.00,103.17
3796.00,103.09
3784.00,102.99
3772.00,103.05
3760.00,103.07
3748.00,103.43
3736.00,103.34
3724.00,103.10
3712.00,103.10
3700.00,102.93
3688.00,103.03
3676.00,103.10
3664.00,102.81
3652.00,103.10
3640.00,102.74
3628.00,102.93
3616.00,102.85
3604.00,102.62
3592.00,102.53
3580.00,102.51
3568.00,102.48
3556.00,102.31
3544.00,102.22
3532.00,102.06
3520.00,101.96
3508.00,101.80
3496.00,101.67
3484.00,101.67
3472.00,101.52
3460.00,101.47
3448.00,101.45
3436.00,101.34
3424.00,101.24
3412.00,101.06
3400.00,100.93
3388.00,100.70
3376.00,100.54
3364.00,99.98
3352.00,99.30
3340.00,98.21
3328.00,96.62
3316.00,94.29
3304.00,91.09
3292.00,89.24
3280.00,91.53
3268.00,93.67
3256.00,95.51
3244.00,96.95
3232.00,98.02
3220.00,98.65
3208.00,98.94
3196.00,99.24
3184.00,99.64
3172.00,100.05
3160.00,100.53
3148.00,100.72
3136.00,100.82
3124.00,100.72
3112.00,100.46
3100.00,100.02
3088.00,99.56
3076.00,99.37
3064.00,99.48
3052.00,100.04
3040.00,100.76
3028.00,101.11
3016.00,101.25
3004.00,101.24
2992.00,101.12
2980.00,100.39
2968.00,98.90
2956.00,96.46
2944.00,92.46
2932.00,91.63
2920.00,93.55
2908.00,95.49
2896.00,96.54
2884.00,97.20
2872.00,94.92
2860.00,94.57
2848.00,97.18
2836.00,99.89
2824.00,100.43
2812.00,100.75
2800.00,100.95
2788.00,101.14
2776.00,101.26
2764.00,101.37
2752.00,101.37
2740.00,101.42
2728.00,101.53
2716.00,101.58
2704.00,101.59
2692.00,101.65
2680.00,101.67
2668.00,101.68
2656.00,101.62
2644.00,101.60
2632.00,101.54
2620.00,101.52
2608.00,101.48
2596.00,101.50
2584.00,101.43
2572.00,101.52
2560.00,101.47
2548.00,101.48
2536.00,101.46
2524.00,101.52
2512.00,101.51
2500.00,101.57
2488.00,101.52
2476.00,101.48
2464.00,101.53
2452.00,101.45
2440.00,101.48
2428.00,101.52
2416.00,101.51
2404.00,101.61
2392.00,101.62
2380.00,101.76
2368.00,101.78
2356.00,101.73
2344.00,101.80
2332.00,101.54
2320.00,101.26
2308.00,101.28
2296.00,101.36
2284.00,101.17
2272.00,101.15
2260.00,101.06
2248.00,100.90
2236.00,100.89
2224.00,100.74
2212.00,100.79
2200.00,100.45
2188.00,100.38
2176.00,100.54
2164.00,100.15
2152.00,100.56
2140.00,100.64
2128.00,101.03
2116.00,100.94
2104.00,100.94
2092.00,100.93
2080.00,100.81
2068.00,100.80
2056.00,100.73
2044.00,100.39
2032.00,100.38
2020.00,100.37
2008.00,100.53
1996.00,100.60
1984.00,100.37
1972.00,100.47
1960.00,100.67
1948.00,100.76
1936.00,100.97
1924.00,100.97
1912.00,100.98
1900.00,101.06
1888.00,101.03
1876.00,101.07
1864.00,101.07
1852.00,101.19
1840.00,101.12
1828.00,101.11
1816.00,101.13
1804.00,101.10
1792.00,101.09
1780.00,101.03
1768.00,100.89
1756.00,100.75
1744.00,100.42
1732.00,100.29
1720.00,100.15
1708.00,100.01
1696.00,99.86
1684.00,98.16
1672.00,94.57
1660.00,89.30
1648.00,83.39
1636.00,75.45
1624.00,79.33
1612.00,86.92
1600.00,92.71
1588.00,94.38
1576.00,92.58
1564.00,88.28
1552.00,83.25
1540.00,78.59
1528.00,81.24
1516.00,86.92
1504.00,91.48
1492.00,94.00
1480.00,91.00
1468.00,90.31
1456.00,90.25
1444.00,91.08
1432.00,91.14
1420.00,90.20
1408.00,92.61
1396.00,94.54
1384.00,93.00
1372.00,91.09
1360.00,92.19
1348.00,93.22
1336.00,93.86
1324.00,94.41
1312.00,94.02
1300.00,93.35
1288.00,92.85
1276.00,92.11
1264.00,89.24
1252.00,91.09
1240.00,91.65
1228.00,93.77
1216.00,93.46
1204.00,91.96
1192.00,93.43
1180.00,94.54
1168.00,92.52
1156.00,95.44
1144.00,96.74
1132.00,96.73
1120.00,95.11
1108.00,95.43
1096.00,96.21
1084.00,96.37
1072.00,96.21
1060.00,96.90
1048.00,97.59
1036.00,97.48
1024.00,97.49
1012.00,97.88
1000.00,97.94
988.00,97.45
976.00,97.10
964.00,96.65
952.00,96.69
940.00,97.62
928.00,96.89
916.00,97.90
904.00,98.23
892.00,98.27
880.00,98.41
868.00,98.48
856.00,98.43
844.00,98.17
832.00,97.24
820.00,97.84
808.00,97.55
796.00,97.00
784.00,96.42
772.00,95.80
760.00,95.06
748.00,94.22
736.00,92.13
724.00,90.26
712.00,89.27
700.00,88.01
688.00,85.60
676.00,85.96
664.00,87.36
652.00,89.17
640.00,90.05
628.00,90.28
616.00,90.07
604.00,90.14
592.00,88.96
580.00,85.34
568.00,86.15
556.00,88.46
550.00,87.43