File: raw_csv_data/Nylon - 7.csv
Created as New Dataset,75 Nylon Allied Signal Fibers
cm-1,%T
4000.00,101.37
3988.00,101.39
3976.00,101.35
3964.00,101.41
3952.00,101.44
3940.00,101.44
3928.00,101.44
3916.00,101.45
3904.00,101.43
3892.00,101.40
3880.00,101.35
3868.00,101.42
3856.00,101.62
3844.00,101.37
3832.00,101.38
3820.00,101.47
3808.00,101.39
3796.00,101.33
3784.00,101.35
3772.00,101.30
3760.00,101.34
3748.00,101.38
3736.00,101.45
3724.00,101.29
3712.00,101.38
3700.00,101.27
3688.00,101.38
3676.00,101.32
3664.00,101.23
3652.00,101.30
3640.00,101.19
3628.00,101.23
3616.00,101.22
3604.00,101.10
3592.00,101.04
3580.00,101.01
3568.00,100.98
3556.00,100.82
3544.00,100.74
3532.00,100.67
3520.00,100.57
3508.00,100.50
3496.00,100.41
3484.00,100.37
3472.00,100.35
3460.00,100.32
3448.00,100.23
3436.00,100.22
3424.00,100.19
3412.00,100.13
3400.00,100.04
3388.00,99.90
3376.00,99.70
3364.00,99.39
3352.00,98.99
3340.00,98.30
3328.00,97.49
3316.00,96.41
3304.00,95.24
3292.00,94.79
3280.00,95.18
3268.00,95.83
3256.00,96.61
3244.00,97.50
3232.00,98.15
3220.00,98.58
3208.00,98.87
3196.00,99.05
3184.00,99.30
3172.00,99.61
3160.00,99.83
3148.00,99.94
3136.00,99.95
3124.00,99.91
3112.00,99.75
3100.00,99.38
3088.00,99.11
3076.00,99.06
3064.00,99.25
3052.00,99.62
3040.00,99.91
3028.00,100.19
3016.00,100.26
3004.00,100.28
2992.00,100.16
2980.00,99.82
2968.00,98.91
2956.00,97.46
2944.00,95.68
2932.00,94.75
2920.00,95.44
2908.00,96.72
2896.00,97.54
2884.00,97.94
2872.00,96.91
2860.00,96.16
2848.00,97.61
2836.00,99.34
2824.00,99.80
2812.00,99.95
2800.00,100.13
2788.00,100.17
2776.00,100.31
2764.00,100.34
2752.00,100.37
2740.00,100.39
2728.00,100.41
2716.00,100.47
2704.00,100.50
2692.00,100.52
2680.00,100.53
2668.00,100.50
2656.00,100.52
2644.00,100.44
2632.00,100.44
2620.00,100.46
2608.00,100.44
2596.00,100.44
2584.00,100.48
2572.00,100.46
2560.00,100.43
2548.00,100.44
2536.00,100.44
2524.00,100.41
2512.00,100.46
2500.00,100.47
2488.00,100.42
2476.00,100.40
2464.00,100.41
2452.00,100.40
2440.00,100.46
2428.00,100.53
2416.00,100.44
2404.00,100.52
2392.00,100.52
2380.00,100.54
2368.00,100.60
2356.00,100.55
2344.00,100.81
2332.00,100.49
2320.00,100.35
2308.00,100.33
2296.00,100.31
2284.00,100.24
2272.00,100.24
2260.00,100.29
2248.00,100.18
2236.00,100.12
2224.00,100.13
2212.00,99.96
2200.00,100.00
2188.00,100.19
2176.00,99.87
2164.00,99.74
2152.00,100.14
2140.00,100.24
2128.00,100.25
2116.00,100.16
2104.00,100.00
2092.00,100.22
2080.00,100.18
2068.00,100.14
2056.00,100.09
2044.00,99.86
2032.00,100.04
2020.00,99.99
2008.00,100.03
1996.00,100.08
1984.00,99.77
1972.00,99.95
1960.00,100.09
1948.00,100.19
1936.00,100.09
1924.00,100.24
1912.00,100.26
1900.00,100.24
1888.00,100.22
1876.00,100.20
1864.00,100.16
1852.00,100.24
1840.00,100.25
1828.00,100.24
1816.00,100.27
1804.00,100.28
1792.00,100.25
1780.00,100.20
1768.00,100.25
1756.00,100.09
1744.00,99.99
1732.00,99.94
1720.00,99.94
1708.00,99.81
1696.00,99.60
1684.00,98.54
1672.00,96.31
1660.00,93.20
1648.00,89.59
1636.00,85.95
1624.00,87.13
1612.00,91.19
1600.00,94.84
1588.00,95.88
1576.00,94.50
1564.00,91.71
1552.00,89.17
1540.00,87.47
1528.00,88.29
1516.00,91.02
1504.00,93.66
1492.00,95.28
1480.00,94.52
1468.00,93.53
1456.00,93.36
1444.00,93.75
1432.00,93.60
1420.00,93.72
1408.00,95.33
1396.00,96.48
1384.00,95.55
1372.00,94.34
1360.00,94.81
1348.00,95.52
1336.00,95.95
1324.00,96.20
1312.00,95.88
1300.00,95.56
1288.00,95.33
1276.00,94.88
1264.00,93.75
1252.00,94.03
1240.00,94.37
1228.00,95.62
1216.00,95.92
1204.00,95.05
1192.00,95.68
1180.00,96.27
1168.00,94.56
1156.00,96.84
1144.00,97.87
1132.00,97.99
1120.00,96.76
1108.00,96.97
1096.00,97.69
1084.00,97.76
1072.00,97.55
1060.00,98.06
1048.00,98.53
1036.00,98.62
1024.00,98.62
1012.00,98.83
1000.00,98.83
988.00,98.50
976.00,98.22
964.00,98.25
952.00,98.48
940.00,98.90
928.00,98.69
916.00,99.04
904.00,99.29
892.00,99.27
880.00,99.39
868.00,99.50
856.00,99.47
844.00,99.35
832.00,98.88
820.00,99.07
808.00,98.91
796.00,98.50
784.00,98.06
772.00,97.56
760.00,97.13
748.00,96.46
736.00,95.14
724.00,93.86
712.00,93.70
700.00,93.23
688.00,92.39
676.00,92.30
664.00,92.71
652.00,93.82
640.00,94.19
628.00,94.22
616.00,94.19
604.00,93.97
592.00,92.96
580.00,91.20
568.00,90.70
556.00,92.57
550.00,95.60