File: raw_csv_data/Nylon - 2.csv
Created as New Dataset,83. Allied Signal Fibers
cm-1,%T
4000.00,97.88
3988.00,97.83
3976.00,97.92
3964.00,97.85
3952.00,97.96
3940.00,97.90
3928.00,97.88
3916.00,97.87
3904.00,97.97
3892.00,97.89
3880.00,97.91
3868.00,97.92
3856.00,97.93
3844.00,97.98
3832.00,97.78
3820.00,97.79
3808.00,97.77
3796.00,97.74
3784.00,97.72
3772.00,97.74
3760.00,97.69
3748.00,97.74
3736.00,97.73
3724.00,97.67
3712.00,97.72
3700.00,97.59
3688.00,97.52
3676.00,97.46
3664.00,97.43
3652.00,97.46
3640.00,97.33
3628.00,97.27
3616.00,97.18
3604.00,97.05
3592.00,96.99
3580.00,96.79
3568.00,96.71
3556.00,96.57
3544.00,96.32
3532.00,96.04
3520.00,95.89
3508.00,95.62
3496.00,95.42
3484.00,95.41
3472.00,95.31
3460.00,95.27
3448.00,95.09
3436.00,95.03
3424.00,95.00
3412.00,94.90
3400.00,94.77
3388.00,94.61
3376.00,94.33
3364.00,93.84
3352.00,93.06
3340.00,91.85
3328.00,89.78
3316.00,86.81
3304.00,83.05
3292.00,81.64
3280.00,83.60
3268.00,85.67
3256.00,87.70
3244.00,89.50
3232.00,90.87
3220.00,91.71
3208.00,92.23
3196.00,92.70
3184.00,93.29
3172.00,93.83
3160.00,94.39
3148.00,94.75
3136.00,94.78
3124.00,94.70
3112.00,94.19
3100.00,93.51
3088.00,93.14
3076.00,93.25
3064.00,93.69
3052.00,94.42
3040.00,95.16
3028.00,95.61
3016.00,95.82
3004.00,95.96
2992.00,95.91
2980.00,95.27
2968.00,93.48
2956.00,90.79
2944.00,86.11
2932.00,83.80
2920.00,85.32
2908.00,88.63
2896.00,90.25
2884.00,91.23
2872.00,88.86
2860.00,87.20
2848.00,89.88
2836.00,93.74
2824.00,94.63
2812.00,95.09
2800.00,95.45
2788.00,95.67
2776.00,95.84
2764.00,95.97
2752.00,96.03
2740.00,96.08
2728.00,96.22
2716.00,96.35
2704.00,96.43
2692.00,96.44
2680.00,96.48
2668.00,96.56
2656.00,96.46
2644.00,96.41
2632.00,96.34
2620.00,96.28
2608.00,96.21
2596.00,96.20
2584.00,96.14
2572.00,96.13
2560.00,96.08
2548.00,96.11
2536.00,96.07
2524.00,96.15
2512.00,96.21
2500.00,96.25
2488.00,96.24
2476.00,96.23
2464.00,96.23
2452.00,96.25
2440.00,96.26
2428.00,96.34
2416.00,96.33
2404.00,96.42
2392.00,96.49
2380.00,96.69
2368.00,96.84
2356.00,96.82
2344.00,96.83
2332.00,96.79
2320.00,96.56
2308.00,96.47
2296.00,96.23
2284.00,95.94
2272.00,95.82
2260.00,95.58
2248.00,95.42
2236.00,95.28
2224.00,95.18
2212.00,94.98
2200.00,94.95
2188.00,94.58
2176.00,94.50
2164.00,93.95
2152.00,94.60
2140.00,95.04
2128.00,95.67
2116.00,95.67
2104.00,95.57
2092.00,95.76
2080.00,95.60
2068.00,95.44
2056.00,95.30
2044.00,94.94
2032.00,94.64
2020.00,94.81
2008.00,94.79
1996.00,95.27
1984.00,94.92
1972.00,94.95
1960.00,95.28
1948.00,95.83
1936.00,96.02
1924.00,96.24
1912.00,96.34
1900.00,96.48
1888.00,96.54
1876.00,96.68
1864.00,96.74
1852.00,96.90
1840.00,96.95
1828.00,96.95
1816.00,97.07
1804.00,97.15
1792.00,97.20
1780.00,97.20
1768.00,97.21
1756.00,97.08
1744.00,96.92
1732.00,96.99
1720.00,96.92
1708.00,96.89
1696.00,96.74
1684.00,95.33
1672.00,91.28
1660.00,82.92
1648.00,73.81
1636.00,63.12
1624.00,66.71
1612.00,76.54
1600.00,84.56
1588.00,87.12
1576.00,83.25
1564.00,76.11
1552.00,71.11
1540.00,65.58
1528.00,69.29
1516.00,77.00
1504.00,83.04
1492.00,86.36
1480.00,84.49
1468.00,82.45
1456.00,81.93
1444.00,82.74
1432.00,82.65
1420.00,82.90
1408.00,85.81
1396.00,87.91
1384.00,86.17
1372.00,83.33
1360.00,84.28
1348.00,86.18
1336.00,87.19
1324.00,87.85
1312.00,87.02
1300.00,86.10
1288.00,86.11
1276.00,84.60
1264.00,80.82
1252.00,83.08
1240.00,83.95
1228.00,86.12
1216.00,86.45
1204.00,84.84
1192.00,86.55
1180.00,87.96
1168.00,82.93
1156.00,88.74
1144.00,90.95
1132.00,91.35
1120.00,88.68
1108.00,89.76
1096.00,91.07
1084.00,90.77
1072.00,90.47
1060.00,91.26
1048.00,92.25
1036.00,92.25
1024.00,91.96
1012.00,92.41
1000.00,92.22
988.00,91.91
976.00,90.75
964.00,91.10
952.00,91.50
940.00,92.42
928.00,91.57
916.00,92.51
904.00,92.91
892.00,93.09
880.00,93.27
868.00,93.34
856.00,93.36
844.00,93.11
832.00,92.10
820.00,92.40
808.00,91.76
796.00,91.02
784.00,89.95
772.00,89.01
760.00,88.15
748.00,86.20
736.00,83.46
724.00,80.34
712.00,78.83
700.00,77.72
688.00,75.81
676.00,76.43
664.00,78.04
652.00,79.98
640.00,80.99
628.00,80.00
616.00,79.91
604.00,79.38
592.00,79.19
580.00,75.40
568.00,77.17
556.00,77.33
550.00,77.61