File: raw_csv_data/Nylon - 10.csv
Created as New Dataset,80. Nylon Allied Signal Fibers Dyed
cm-1,%T
4000.00,100.06
3988.00,100.04
3976.00,100.01
3964.00,100.09
3952.00,100.04
3940.00,100.04
3928.00,100.05
3916.00,99.98
3904.00,100.01
3892.00,99.94
3880.00,99.98
3868.00,99.92
3856.00,99.88
3844.00,100.02
3832.00,99.91
3820.00,99.84
3808.00,99.94
3796.00,99.96
3784.00,100.00
3772.00,99.97
3760.00,99.93
3748.00,99.77
3736.00,99.82
3724.00,99.88
3712.00,99.84
3700.00,99.92
3688.00,99.80
3676.00,99.75
3664.00,99.85
3652.00,99.66
3640.00,99.82
3628.00,99.64
3616.00,99.61
3604.00,99.54
3592.00,99.52
3580.00,99.57
3568.00,99.36
3556.00,99.40
3544.00,99.22
3532.00,99.13
3520.00,99.06
3508.00,99.02
3496.00,98.95
3484.00,98.84
3472.00,98.82
3460.00,98.77
3448.00,98.65
3436.00,98.57
3424.00,98.59
3412.00,98.43
3400.00,98.40
3388.00,98.23
3376.00,97.98
3364.00,97.73
3352.00,97.29
3340.00,96.51
3328.00,95.20
3316.00,93.04
3304.00,89.69
3292.00,88.12
3280.00,90.56
3268.00,92.66
3256.00,94.26
3244.00,95.40
3232.00,96.23
3220.00,96.72
3208.00,96.89
3196.00,97.12
3184.00,97.35
3172.00,97.75
3160.00,98.03
3148.00,98.28
3136.00,98.37
3124.00,98.32
3112.00,98.15
3100.00,97.84
3088.00,97.62
3076.00,97.41
3064.00,97.32
3052.00,97.64
3040.00,98.22
3028.00,98.58
3016.00,98.69
3004.00,98.60
2992.00,98.55
2980.00,98.17
2968.00,97.12
2956.00,95.29
2944.00,91.52
2932.00,90.85
2920.00,92.57
2908.00,94.13
2896.00,94.74
2884.00,95.48
2872.00,93.43
2860.00,93.30
2848.00,95.13
2836.00,97.45
2824.00,97.96
2812.00,98.23
2800.00,98.41
2788.00,98.58
2776.00,98.70
2764.00,98.81
2752.00,98.80
2740.00,98.82
2728.00,98.93
2716.00,99.05
2704.00,99.08
2692.00,99.15
2680.00,99.18
2668.00,99.22
2656.00,99.15
2644.00,99.13
2632.00,99.13
2620.00,99.10
2608.00,99.07
2596.00,99.09
2584.00,99.10
2572.00,99.11
2560.00,99.11
2548.00,99.11
2536.00,99.06
2524.00,99.12
2512.00,99.20
2500.00,99.22
2488.00,99.24
2476.00,99.19
2464.00,99.24
2452.00,99.26
2440.00,99.26
2428.00,99.33
2416.00,99.34
2404.00,99.41
2392.00,99.43
2380.00,99.49
2368.00,99.47
2356.00,99.37
2344.00,99.46
2332.00,99.36
2320.00,99.35
2308.00,99.25
2296.00,99.33
2284.00,99.24
2272.00,99.20
2260.00,99.15
2248.00,99.15
2236.00,99.13
2224.00,99.11
2212.00,98.97
2200.00,98.88
2188.00,98.91
2176.00,98.77
2164.00,98.66
2152.00,98.99
2140.00,99.09
2128.00,99.39
2116.00,99.23
2104.00,99.25
2092.00,99.41
2080.00,99.26
2068.00,99.09
2056.00,99.13
2044.00,98.94
2032.00,99.04
2020.00,98.98
2008.00,98.98
1996.00,99.21
1984.00,98.98
1972.00,99.13
1960.00,99.18
1948.00,99.32
1936.00,99.46
1924.00,99.52
1912.00,99.51
1900.00,99.58
1888.00,99.59
1876.00,99.72
1864.00,99.72
1852.00,99.83
1840.00,99.77
1828.00,99.77
1816.00,99.93
1804.00,99.92
1792.00,99.91
1780.00,99.91
1768.00,99.84
1756.00,99.70
1744.00,99.14
1732.00,98.39
1720.00,98.37
1708.00,98.57
1696.00,98.68
1684.00,97.65
1672.00,95.22
1660.00,90.60
1648.00,85.33
1636.00,77.75
1624.00,80.85
1612.00,86.68
1600.00,91.82
1588.00,94.00
1576.00,92.99
1564.00,89.95
1552.00,85.76
1540.00,80.58
1528.00,82.83
1516.00,87.97
1504.00,91.91
1492.00,93.94
1480.00,90.98
1468.00,90.98
1456.00,90.91
1444.00,91.83
1432.00,92.11
1420.00,90.71
1408.00,92.36
1396.00,94.49
1384.00,93.38
1372.00,91.68
1360.00,92.76
1348.00,93.66
1336.00,94.29
1324.00,94.83
1312.00,94.60
1300.00,93.98
1288.00,93.53
1276.00,92.88
1264.00,89.84
1252.00,91.74
1240.00,92.46
1228.00,94.32
1216.00,93.99
1204.00,92.49
1192.00,93.29
1180.00,94.40
1168.00,92.68
1156.00,94.99
1144.00,96.39
1132.00,96.90
1120.00,95.84
1108.00,96.18
1096.00,97.10
1084.00,97.22
1072.00,97.17
1060.00,97.76
1048.00,98.40
1036.00,98.21
1024.00,98.16
1012.00,98.78
1000.00,98.91
988.00,98.72
976.00,98.35
964.00,97.83
952.00,97.71
940.00,98.80
928.00,98.02
916.00,99.17
904.00,99.57
892.00,99.63
880.00,99.78
868.00,99.93
856.00,100.00
844.00,99.72
832.00,99.02
820.00,99.60
808.00,99.44
796.00,98.90
784.00,98.66
772.00,98.19
760.00,97.69
748.00,96.96
736.00,95.03
724.00,93.34
712.00,92.43
700.00,90.86
688.00,87.74
676.00,88.13
664.00,89.91
652.00,91.29
640.00,92.76
628.00,93.00
616.00,93.12
604.00,92.33
592.00,91.46
580.00,88.89
568.00,87.98
556.00,90.28
550.00,90.90